# Wavelength (nm)	Intensity (a.u.)
197.7802	0.001293
197.9842	0.000387
198.1882	0.001399
198.3922	-0.001427
198.5963	-0.000436
198.8003	-0.000330
199.0044	0.001209
199.2085	0.001378
199.4126	-0.000183
199.6168	-0.000014
199.8209	0.001441
200.0251	0.001293
200.2292	0.001293
200.4334	-0.000604
200.6376	0.001588
200.8418	0.000450
201.0461	0.000513
201.2503	0.000703
201.4546	-0.000541
201.6589	0.000513
201.8631	0.001146
202.0674	-0.000626
202.2718	-0.000900
202.4761	0.000893
202.6805	0.000218
202.8848	0.000640
203.0892	-0.000457
203.2936	0.001293
203.4980	0.000682
203.7024	-0.000984
203.9069	0.000914
204.1113	0.001061
204.3158	-0.000014
204.5203	0.001103
204.7248	0.001631
204.9293	-0.000499
205.1338	0.000260
205.3384	0.000260
205.5430	-0.000478
205.7475	0.001420
205.9521	0.001103
206.1567	0.000766
206.3614	0.001103
206.5660	0.000850
206.7706	0.000597
206.9753	0.000091
207.1800	0.001167
207.3847	-0.000098
207.5894	0.000049
207.7941	0.000091
207.9989	0.002010
208.2036	0.000302
208.4084	0.000218
208.6132	0.000787
208.8180	0.001420
209.0228	0.001082
209.2276	0.000091
209.4325	0.000703
209.6373	0.000640
209.8422	-0.000541
210.0471	0.001272
210.2520	-0.000689
210.4569	0.000787
210.6618	0.000534
210.8668	0.001778
211.0718	-0.000647
211.2767	0.001884
211.4817	0.000977
211.6867	0.000893
211.8918	0.000408
212.0968	0.000850
212.3018	-0.000014
212.5069	0.000640
212.7120	0.000155
212.9171	0.000766
213.1222	0.001040
213.3273	0.001968
213.5325	-0.000288
213.7376	0.000640
213.9428	0.000197
214.1480	0.000787
214.3532	-0.000541
214.5584	0.000408
214.7636	-0.000119
214.9689	0.001968
215.1741	0.000492
215.3794	0.000323
215.5847	0.000492
215.7900	0.001504
215.9953	-0.000246
216.2007	0.001631
216.4060	0.000197
216.6114	0.000914
216.8168	0.000640
217.0222	0.001251
217.2276	0.001546
217.4330	-0.000098
217.6384	0.000618
217.8439	0.001546
218.0494	-0.000330
218.2548	0.001525
218.4603	0.000471
218.6659	0.000555
218.8714	0.000197
219.0769	0.001040
219.2825	0.000956
219.4881	0.001230
219.6936	0.000956
219.8992	0.000450
220.1049	0.000998
220.3105	0.001504
220.5161	0.000260
220.7218	0.000155
220.9275	0.000302
221.1332	0.000471
221.3389	0.000492
221.5446	-0.000056
221.7503	0.002200
221.9561	0.001462
222.1618	0.000640
222.3676	0.000239
222.5734	0.000112
222.7792	0.002263
222.9850	0.001420
223.1909	0.000766
223.3967	0.000724
223.6026	0.001103
223.8085	0.000197
224.0144	-0.000309
224.2203	0.000914
224.4262	0.000640
224.6322	0.000007
224.8381	-0.000183
225.0441	0.000260
225.2501	0.000724
225.4561	0.000914
225.6621	0.001209
225.8681	-0.000394
226.0742	0.001504
226.2802	-0.000141
226.4863	0.000745
226.6924	0.001356
226.8985	0.000576
227.1046	-0.001448
227.3107	0.000344
227.5169	-0.000204
227.7230	0.000871
227.9292	0.000534
228.1354	-0.000246
228.3416	0.000492
228.5478	0.000155
228.7541	0.000682
228.9603	0.001314
229.1666	-0.000309
229.3729	0.001314
229.5791	0.001504
229.7855	0.000787
229.9918	0.000914
230.1981	0.001462
230.4045	0.000260
230.6108	0.000724
230.8172	0.000703
231.0236	0.000534
231.2300	0.000871
231.4364	0.000618
231.6429	-0.000520
231.8493	0.000766
232.0558	0.000724
232.2623	-0.000077
232.4688	0.001061
232.6753	-0.000457
232.8818	0.000197
233.0884	-0.000900
233.2949	-0.000415
233.5015	0.000914
233.7081	-0.000225
233.9147	-0.000351
234.1213	0.000871
234.3279	-0.000162
234.5346	0.001040
234.7413	0.001251
234.9479	0.000492
235.1546	0.001504
235.3613	0.000260
235.5680	-0.000794
235.7748	0.000555
235.9815	0.000218
236.1883	-0.000246
236.3951	0.002073
236.6018	0.000408
236.8087	0.001103
237.0155	0.000091
237.2223	0.001082
237.4292	0.001378
237.6360	0.002031
237.8429	0.001188
238.0498	0.000281
238.2567	0.000471
238.4636	-0.000752
238.6706	0.000049
238.8775	0.000998
239.0845	0.000745
239.2915	0.000387
239.4985	-0.000562
239.7055	0.001715
239.9125	-0.000836
240.1195	0.001335
240.3266	0.002896
240.5337	-0.000731
240.7407	-0.000773
240.9478	0.000998
241.1549	-0.000647
241.3621	0.001293
241.5692	0.001926
241.7764	0.000661
241.9835	-0.000267
242.1907	-0.000246
242.3979	0.001378
242.6051	0.000829
242.8124	0.001483
243.0196	0.000766
243.2269	0.000197
243.4341	0.001125
243.6414	0.001884
243.8487	0.000429
244.0560	0.001378
244.2634	0.000682
244.4707	0.000597
244.6781	0.001378
244.8854	0.000408
245.0928	0.001420
245.3002	0.001841
245.5076	0.000935
245.7151	0.000597
245.9225	0.001209
246.1300	0.000745
246.3375	0.001736
246.5449	0.000597
246.7524	0.000682
246.9600	-0.000098
247.1675	0.000935
247.3750	0.000302
247.5826	0.000091
247.7902	0.001082
247.9978	0.001293
248.2054	-0.000183
248.4130	0.001272
248.6206	0.000281
248.8283	0.001420
249.0359	0.000365
249.2436	0.000429
249.4513	0.000007
249.6590	0.000956
249.8667	0.000429
250.0745	0.000787
250.2822	0.000323
250.4900	-0.001026
250.6978	0.000829
250.9056	-0.000604
251.1134	0.000513
251.3212	0.002073
251.5290	-0.000752
251.7369	0.000977
251.9447	0.000513
252.1526	0.000197
252.3605	-0.000183
252.5684	0.001715
252.7763	0.000597
252.9843	0.001905
253.1922	-0.000351
253.4002	-0.000077
253.6082	0.001441
253.8162	-0.000984
254.0242	-0.000562
254.2322	0.000534
254.4402	0.001314
254.6483	0.001378
254.8564	0.000534
255.0644	0.001609
255.2725	0.000808
255.4806	0.000935
255.6888	0.000850
255.8969	0.000513
256.1051	0.000429
256.3132	0.001841
256.5214	0.000850
256.7296	0.001209
256.9378	0.000218
257.1460	0.001230
257.3543	-0.000014
257.5625	0.000935
257.7708	0.001715
257.9791	0.000597
258.1874	0.000323
258.3957	0.000091
258.6040	0.000703
258.8124	0.000365
259.0207	0.000365
259.2291	0.000914
259.4375	0.001335
259.6459	0.000597
259.8543	0.000344
260.0627	0.001483
260.2711	0.000323
260.4796	-0.000921
260.6881	0.001209
260.8965	0.001061
261.1050	0.000534
261.3135	0.001715
261.5221	-0.000541
261.7306	0.000576
261.9392	0.000260
262.1477	0.001673
262.3563	-0.000056
262.5649	-0.000984
262.7735	0.000429
262.9822	0.001293
263.1908	-0.001153
263.3995	0.002390
263.6081	0.000387
263.8168	0.000682
264.0255	0.000429
264.2342	0.001019
264.4429	0.000028
264.6517	-0.000077
264.8604	0.000323
265.0692	0.000977
265.2780	0.001209
265.4868	0.000471
265.6956	-0.000056
265.9044	0.001251
266.1133	0.001188
266.3221	0.001694
266.5310	-0.000014
266.7399	0.001167
266.9488	0.000344
267.1577	0.000956
267.3666	-0.000647
267.5755	0.000492
267.7845	0.001652
267.9935	0.000492
268.2024	0.000576
268.4114	0.002242
268.6205	0.000239
268.8295	0.000492
269.0385	0.000745
269.2476	-0.000478
269.4566	0.000429
269.6657	0.000977
269.8748	-0.000942
270.0839	0.001335
270.2931	0.000640
270.5022	0.001820
270.7114	0.001525
270.9205	0.001293
271.1297	0.001019
271.3389	-0.000183
271.5481	0.001841
271.7573	0.000492
271.9666	0.001546
272.1758	0.000576
272.3851	0.000176
272.5944	0.001420
272.8037	0.000555
273.0130	0.000618
273.2223	0.000197
273.4316	0.001420
273.6410	-0.000942
273.8504	0.001757
274.0597	0.000429
274.2691	0.000618
274.4785	-0.000162
274.6880	0.000640
274.8974	-0.000119
275.1069	0.001146
275.3163	0.001905
275.5258	-0.000119
275.7353	0.000007
275.9448	0.001019
276.1543	0.000471
276.3639	0.000597
276.5734	0.000534
276.7830	0.000365
276.9926	0.000935
277.2022	0.000871
277.4118	0.000661
277.6214	0.000829
277.8310	0.000112
278.0407	0.001061
278.2503	0.001483
278.4600	0.000745
278.6697	0.000871
278.8794	0.000850
279.0891	0.000091
279.2989	0.001040
279.5086	-0.000520
279.7184	0.001082
279.9281	-0.000520
280.1379	0.000998
280.3477	-0.000879
280.5576	0.000555
280.7674	-0.000119
280.9772	0.001167
281.1871	0.000998
281.3970	0.000302
281.6069	-0.000309
281.8168	0.001588
282.0267	0.001019
282.2366	0.001609
282.4466	-0.000499
282.6565	0.000724
282.8665	0.000260
283.0765	0.000365
283.2865	0.001799
283.4965	0.000829
283.7065	-0.000372
283.9166	0.000977
284.1266	0.000218
284.3367	0.000661
284.5468	0.000935
284.7569	0.000914
284.9670	0.000134
285.1771	0.001799
285.3873	0.000745
285.5974	0.000387
285.8076	0.000218
286.0178	0.001715
286.2280	0.000977
286.4382	-0.000246
286.6484	0.000914
286.8587	0.001209
287.0689	0.001862
287.2792	0.000513
287.4895	0.000070
287.6998	-0.000246
287.9101	0.001209
288.1204	0.000028
288.3308	0.000429
288.5411	0.000829
288.7515	0.000028
288.9619	0.001293
289.1723	0.001188
289.3827	0.001420
289.5931	0.000998
289.8035	0.001715
290.0140	-0.000372
290.2245	0.000597
290.4349	0.001082
290.6454	0.000534
290.8559	-0.000604
291.0665	0.002368
291.2770	-0.000604
291.4875	0.000871
291.6981	-0.000689
291.9087	0.001082
292.1193	-0.000857
292.3299	0.000218
292.5405	0.000576
292.7511	0.001757
292.9618	0.001757
293.1724	-0.000077
293.3831	-0.000478
293.5938	0.000197
293.8045	0.000365
294.0152	0.001694
294.2260	0.000724
294.4367	0.000914
294.6475	0.000850
294.8582	0.000998
295.0690	0.000134
295.2798	0.001715
295.4906	0.000471
295.7015	0.001504
295.9123	0.000239
296.1232	-0.000879
296.3340	-0.001174
296.5449	0.000829
296.7558	0.001420
296.9667	0.001314
297.1777	0.000492
297.3886	-0.000077
297.5995	0.000829
297.8105	0.000450
298.0215	-0.000499
298.2325	0.000998
298.4435	0.001525
298.6545	-0.000014
298.8656	0.000703
299.0766	0.001588
299.2877	0.000450
299.4988	-0.000647
299.7099	-0.000119
299.9210	0.001040
300.1321	0.000344
300.3432	-0.000415
300.5544	0.001736
300.7655	0.000281
300.9767	-0.000309
301.1879	0.000408
301.3991	0.001188
301.6103	0.000998
301.8215	-0.000014
302.0328	-0.000541
302.2441	0.001631
302.4553	0.000450
302.6666	-0.000436
302.8779	0.000935
303.0892	0.000408
303.3006	0.001040
303.5119	0.000260
303.7233	-0.000014
303.9346	0.000914
304.1460	0.001335
304.3574	0.001103
304.5688	0.001378
304.7803	-0.000056
304.9917	0.001188
305.2031	0.000218
305.4146	0.000492
305.6261	0.000281
305.8376	0.000977
306.0491	0.000112
306.2606	0.000112
306.4722	0.000323
306.6837	0.001441
306.8953	0.000471
307.1069	0.000112
307.3184	0.000134
307.5301	0.000829
307.7417	0.000450
307.9533	0.001040
308.1650	0.000155
308.3766	0.001188
308.5883	-0.001005
308.8000	0.000134
309.0117	0.001335
309.2234	0.000070
309.4351	0.001420
309.6469	0.000850
309.8586	0.001293
310.0704	0.000829
310.2822	-0.000056
310.4940	-0.000098
310.7058	-0.000520
310.9176	0.001019
311.1295	0.000218
311.3413	0.002137
311.5532	0.000935
311.7651	0.001251
311.9770	0.000365
312.1889	0.000555
312.4008	-0.000963
312.6127	-0.000372
312.8247	0.000787
313.0366	0.000302
313.2486	0.000049
313.4606	0.001167
313.6726	0.000197
313.8846	0.001588
314.0967	0.000513
314.3087	0.000260
314.5208	0.000408
314.7328	0.001293
314.9449	0.000450
315.1570	-0.000077
315.3692	0.000387
315.5813	0.001546
315.7934	0.000914
316.0056	0.000197
316.2177	0.000112
316.4299	0.000365
316.6421	0.000260
316.8543	0.001947
317.0666	0.000239
317.2788	0.000787
317.4911	-0.000394
317.7033	-0.000098
317.9156	0.000049
318.1279	0.000091
318.3402	0.000239
318.5525	-0.000752
318.7649	-0.000035
318.9772	0.001103
319.1896	-0.001216
319.4019	0.000914
319.6143	0.000176
319.8267	-0.000141
320.0392	0.001588
320.2516	0.001652
320.4640	-0.000098
320.6765	0.000534
320.8890	-0.000056
321.1014	0.000471
321.3139	0.000281
321.5265	0.000787
321.7390	0.000724
321.9515	0.002094
322.1641	0.001082
322.3766	0.001968
322.5892	0.000260
322.8018	0.001082
323.0144	0.000091
323.2270	0.000682
323.4397	0.001293
323.6523	-0.000330
323.8650	-0.000141
324.0777	0.000829
324.2904	0.000998
324.5031	0.000682
324.7158	0.001040
324.9285	0.000682
325.1412	0.001103
325.3540	0.001673
325.5668	0.000450
325.7796	0.000724
325.9924	0.000597
326.2052	-0.000225
326.4180	0.002115
326.6308	0.000408
326.8437	-0.000141
327.0566	0.002031
327.2694	0.000155
327.4823	-0.000984
327.6952	-0.000098
327.9082	-0.000162
328.1211	-0.000183
328.3340	0.001862
328.5470	0.002453
328.7600	0.000112
328.9730	0.001146
329.1860	0.001694
329.3990	-0.000351
329.6120	-0.000415
329.8251	0.000070
330.0381	-0.000752
330.2512	0.000260
330.4643	0.000049
330.6774	0.000998
330.8905	-0.000162
331.1036	0.000808
331.3167	0.001272
331.5299	0.001356
331.7431	0.000365
331.9562	0.000576
332.1694	0.000977
332.3826	-0.000921
332.5959	0.001293
332.8091	0.001841
333.0223	0.002115
333.2356	0.000429
333.4489	0.001588
333.6622	-0.000035
333.8755	0.000155
334.0888	0.000091
334.3021	0.000387
334.5154	0.000344
334.7288	0.000471
334.9422	0.000850
335.1555	0.001082
335.3689	0.000998
335.5823	-0.000457
335.7958	0.001757
336.0092	0.000808
336.2227	0.000808
336.4361	0.000977
336.6496	0.001146
336.8631	0.000850
337.0766	0.000893
337.2901	0.000935
337.5036	0.000998
337.7172	0.002137
337.9307	0.000197
338.1443	0.000871
338.3579	0.000829
338.5715	0.002158
338.7851	-0.000309
338.9987	0.001378
339.2124	0.001103
339.4260	0.000682
339.6397	-0.000520
339.8533	0.001462
340.0670	0.001103
340.2807	-0.000351
340.4945	0.000534
340.7082	0.001947
340.9219	-0.000204
341.1357	0.000344
341.3495	0.002073
341.5633	0.000070
341.7771	-0.000415
341.9909	0.000914
342.2047	0.000871
342.4185	0.001125
342.6324	0.001525
342.8463	0.000534
343.0601	0.000703
343.2740	0.000007
343.4879	0.000618
343.7019	-0.000246
343.9158	0.000091
344.1297	-0.000183
344.3437	0.000618
344.5577	0.000745
344.7717	0.000302
344.9857	0.001272
345.1997	0.000513
345.4137	0.001736
345.6277	0.000049
345.8418	-0.000900
346.0559	-0.000900
346.2699	0.000534
346.4840	0.001652
346.6981	-0.001532
346.9123	0.000745
347.1264	0.000871
347.3406	0.000935
347.5547	-0.000183
347.7689	-0.000162
347.9831	0.001378
348.1973	0.000197
348.4115	0.001441
348.6257	0.000703
348.8400	0.000914
349.0542	0.000344
349.2685	0.002010
349.4828	0.000956
349.6971	0.000450
349.9114	0.001251
350.1257	0.001694
350.3400	0.001862
350.5544	0.001504
350.7687	0.000808
350.9831	-0.000372
351.1975	-0.000541
351.4119	0.000070
351.6263	0.001082
351.8407	0.001019
352.0552	0.001567
352.2696	-0.000689
352.4841	0.000914
352.6986	0.002368
352.9131	0.000998
353.1276	-0.000098
353.3421	0.000302
353.5566	0.002115
353.7712	0.001230
353.9858	0.000871
354.2003	0.000661
354.4149	0.000408
354.6295	0.001399
354.8441	0.001841
355.0588	-0.000436
355.2734	0.001926
355.4881	0.000597
355.7027	0.000302
355.9174	-0.000541
356.1321	0.001441
356.3468	-0.000478
356.5615	-0.000752
356.7763	0.001567
356.9910	0.001335
357.2058	0.000281
357.4206	-0.000204
357.6353	-0.000921
357.8501	0.001504
358.0650	0.000070
358.2798	-0.000520
358.4946	-0.000162
358.7095	0.000070
358.9243	-0.000942
359.1392	0.001335
359.3541	-0.000288
359.5690	0.000640
359.7839	-0.001406
359.9989	0.000387
360.2138	0.000534
360.4288	0.001125
360.6438	0.001019
360.8587	0.001609
361.0737	0.002200
361.2888	-0.000267
361.5038	0.000914
361.7188	0.000640
361.9339	0.000344
362.1489	0.001230
362.3640	0.000302
362.5791	0.001757
362.7942	0.002179
363.0093	0.001420
363.2245	-0.000351
363.4396	0.000766
363.6548	0.001146
363.8699	0.000787
364.0851	-0.000604
364.3003	0.001926
364.5155	0.000070
364.7308	0.000028
364.9460	0.001441
365.1612	0.002326
365.3765	0.001652
365.5918	0.000766
365.8071	0.002242
366.0224	0.001167
366.2377	0.000724
366.4530	0.000787
366.6684	-0.000119
366.8837	0.000408
367.0991	0.000155
367.3145	0.002137
367.5299	0.000429
367.7453	0.000387
367.9607	-0.000436
368.1761	0.001968
368.3916	0.000787
368.6070	0.000070
368.8225	0.001673
369.0380	0.000429
369.2535	-0.000056
369.4690	0.001082
369.6845	0.000829
369.9001	0.000935
370.1156	0.000070
370.3312	0.001715
370.5468	0.000640
370.7624	0.001103
370.9780	-0.000942
371.1936	0.001230
371.4092	-0.000056
371.6249	0.001441
371.8405	-0.000098
372.0562	0.000281
372.2719	0.000829
372.4876	0.001567
372.7033	0.000323
372.9190	0.000745
373.1348	-0.001026
373.3505	0.000555
373.5663	-0.000077
373.7820	0.000155
373.9978	-0.000351
374.2136	0.000555
374.4294	0.001504
374.6453	0.001820
374.8611	0.000281
375.0770	-0.000604
375.2928	0.000070
375.5087	-0.000794
375.7246	-0.000604
375.9405	0.000007
376.1564	-0.000056
376.3724	-0.000647
376.5883	0.000197
376.8043	0.002432
377.0203	0.000281
377.2362	0.001209
377.4522	0.000260
377.6682	0.000914
377.8843	0.000534
378.1003	0.000640
378.3164	0.000176
378.5324	0.000534
378.7485	0.000597
378.9646	0.001103
379.1807	0.000850
379.3968	0.000239
379.6129	-0.000562
379.8291	0.001841
380.0452	-0.000351
380.2614	0.000618
380.4776	0.001441
380.6938	0.001483
380.9100	0.000745
381.1262	0.000091
381.3424	0.001462
381.5587	-0.000014
381.7749	0.001356
381.9912	0.001905
382.2075	0.001441
382.4238	0.000555
382.6401	0.001989
382.8564	0.000914
383.0728	0.000408
383.2891	-0.000288
383.5055	0.000703
383.7219	-0.000119
383.9382	0.000070
384.1546	0.000555
384.3711	0.000682
384.5875	0.000787
384.8039	-0.000942
385.0204	0.000745
385.2368	-0.000836
385.4533	0.000766
385.6698	-0.000752
385.8863	0.000450
386.1028	0.000429
386.3194	0.001040
386.5359	0.000281
386.7525	0.000239
386.9690	0.000935
387.1856	0.001884
387.4022	-0.000246
387.6188	0.000028
387.8355	0.000365
388.0521	0.000893
388.2687	0.000387
388.4854	0.000766
388.7021	0.000387
388.9188	-0.000541
389.1355	0.000408
389.3522	0.000302
389.5689	0.000028
389.7856	0.001841
390.0024	0.000450
390.2192	0.000724
390.4359	0.000218
390.6527	-0.000056
390.8695	0.001757
391.0863	0.001061
391.3032	0.001588
391.5200	0.000935
391.7369	0.000176
391.9537	0.002158
392.1706	0.002094
392.3875	0.001167
392.6044	0.000576
392.8213	0.000787
393.0383	0.001631
393.2552	0.001757
393.4722	-0.000647
393.6891	0.000829
393.9061	0.000492
394.1231	0.002094
394.3401	-0.000351
394.5572	0.001609
394.7742	0.000576
394.9912	0.000302
395.2083	0.000492
395.4254	0.000492
395.6425	0.000365
395.8596	0.001167
396.0767	-0.000077
396.2938	0.000618
396.5109	0.000197
396.7281	0.002010
396.9453	0.000492
397.1624	0.001103
397.3796	0.001631
397.5968	-0.000520
397.8140	0.001251
398.0313	0.000808
398.2485	0.001188
398.4658	0.000850
398.6830	-0.000077
398.9003	0.001631
399.1176	-0.000499
399.3349	-0.000119
399.5522	0.001125
399.7696	0.001314
399.9869	0.000408
400.2043	-0.000604
400.4216	0.000218
400.6390	0.000513
400.8564	0.001420
401.0738	0.001082
401.2912	0.001715
401.5087	0.000408
401.7261	-0.000267
401.9436	0.001588
402.1610	-0.000626
402.3785	0.000850
402.5960	-0.000900
402.8135	0.001694
403.0310	-0.000183
403.2486	0.002558
403.4661	0.001167
403.6837	0.001483
403.9013	0.001167
404.1189	0.001799
404.3365	0.000956
404.5541	0.001335
404.7717	0.000640
404.9893	0.000850
405.2070	0.001841
405.4246	0.001483
405.6423	0.001040
405.8600	0.002242
406.0777	0.001588
406.2954	0.000661
406.5131	0.000956
406.7309	0.000344
406.9486	0.000450
407.1664	0.000365
407.3842	0.001504
407.6020	-0.000499
407.8198	0.002685
408.0376	0.002137
408.2554	0.001399
408.4733	0.001272
408.6911	0.001082
408.9090	0.002052
409.1269	0.000555
409.3448	0.001272
409.5627	0.002052
409.7806	0.000049
409.9985	0.001314
410.2165	0.000618
410.4344	0.002390
410.6524	0.002200
410.8704	0.000703
411.0884	0.002347
411.3064	0.002664
411.5244	0.000513
411.7424	0.000492
411.9605	0.001462
412.1785	0.002790
412.3966	0.001926
412.6147	0.003338
412.8328	0.001862
413.0509	0.003191
413.2690	0.002516
413.4871	0.002368
413.7053	0.001567
413.9234	0.002137
414.1416	0.002432
414.3598	0.001356
414.5780	0.002347
414.7962	0.002411
415.0144	0.003402
415.2326	0.001926
415.4509	0.003212
415.6692	0.002158
415.8874	0.002600
416.1057	0.002664
416.3240	0.001862
416.5423	0.002769
416.7606	0.002748
416.9790	0.003908
417.1973	0.002748
417.4157	0.002938
417.6341	0.003254
417.8524	0.001799
418.0708	0.003887
418.2893	0.004435
418.5077	0.001862
418.7261	0.002537
418.9446	0.003929
419.1630	0.004076
419.3815	0.003191
419.6000	0.002853
419.8185	0.003275
420.0370	0.004224
420.2555	0.003423
420.4741	0.004287
420.6926	0.003908
420.9112	0.003802
421.1298	0.003507
421.3483	0.003992
421.5669	0.004751
421.7856	0.004393
422.0042	0.004498
422.2228	0.005911
422.4415	0.004646
422.6601	0.003697
422.8788	0.005805
423.0975	0.004540
423.3162	0.005594
423.5349	0.003887
423.7536	0.004203
423.9724	0.006122
424.1911	0.004878
424.4099	0.005615
424.6287	0.005637
424.8475	0.005489
425.0663	0.007323
425.2851	0.005004
425.5039	0.004076
425.7228	0.005489
425.9416	0.005468
426.1605	0.004856
426.3793	0.005173
426.5982	0.006143
426.8171	0.004835
427.0361	0.005236
427.2550	0.004878
427.4739	0.006986
427.6929	0.005700
427.9118	0.007682
428.1308	0.005194
428.3498	0.006185
428.5688	0.006712
428.7878	0.008862
429.0068	0.007176
429.2259	0.007450
429.4449	0.008420
429.6640	0.008378
429.8831	0.007112
430.1022	0.010317
430.3213	0.009432
430.5404	0.010570
430.7595	0.008167
430.9787	0.008652
431.1978	0.009453
431.4170	0.010486
431.6362	0.008040
431.8553	0.009790
432.0745	0.007239
432.2938	0.008631
432.5130	0.008378
432.7322	0.009896
432.9515	0.008715
433.1707	0.008799
433.3900	0.009980
433.6093	0.009896
433.8286	0.011182
434.0479	0.010528
434.2673	0.011013
434.4866	0.009453
434.7059	0.010908
434.9253	0.009579
435.1447	0.011983
435.3641	0.011076
435.5835	0.012131
435.8029	0.010549
436.0223	0.011899
436.2418	0.012025
436.4612	0.011224
436.6807	0.011561
436.9001	0.013754
437.1196	0.012573
437.3391	0.011920
437.5586	0.012637
437.7782	0.012700
437.9977	0.013164
438.2173	0.013923
438.4368	0.013311
438.6564	0.013733
438.8760	0.015694
439.0956	0.012658
439.3152	0.014914
439.5348	0.014471
439.7545	0.013058
439.9741	0.013375
440.1938	0.014366
440.4135	0.013438
440.6331	0.015146
440.8528	0.016853
441.0725	0.014745
441.2923	0.018076
441.5120	0.018161
441.7318	0.018203
441.9515	0.020037
442.1713	0.017634
442.3911	0.018287
442.6109	0.018393
442.8307	0.018224
443.0505	0.016811
443.2703	0.020311
443.4902	0.017317
443.7101	0.021703
443.9299	0.020902
444.1498	0.020058
444.3697	0.019468
444.5896	0.019573
444.8095	0.019573
445.0295	0.019974
445.2494	0.020649
445.4694	0.020733
445.6894	0.020206
445.9093	0.020417
446.1293	0.020754
446.3493	0.021513
446.5694	0.019784
446.7894	0.022040
447.0094	0.020396
447.2295	0.021724
447.4496	0.020543
447.6696	0.021239
447.8897	0.020164
448.1098	0.022757
448.3300	0.022230
448.5501	0.021808
448.7702	0.020986
448.9904	0.020775
449.2106	0.022104
449.4307	0.021155
449.6509	0.021239
449.8711	0.021429
450.0914	0.022335
450.3116	0.025182
450.5318	0.020079
450.7521	0.024085
450.9724	0.021576
451.1926	0.021661
451.4129	0.020754
451.6332	0.023769
451.8535	0.023348
452.0739	0.024317
452.2942	0.022884
452.5146	0.022778
452.7349	0.022251
452.9553	0.022884
453.1757	0.022799
453.3961	0.023179
453.6165	0.021155
453.8369	0.022125
454.0574	0.021956
454.2778	0.022399
454.4983	0.021914
454.7188	0.020965
454.9393	0.021091
455.1597	0.022947
455.3803	0.022673
455.6008	0.024655
455.8213	0.022167
456.0419	0.023495
456.2624	0.023727
456.4830	0.022673
456.7036	0.024802
456.9242	0.024676
457.1448	0.024570
457.3654	0.025561
457.5860	0.024718
457.8067	0.025224
458.0274	0.026173
458.2480	0.027438
458.4687	0.027965
458.6894	0.027396
458.9101	0.027396
459.1308	0.026805
459.3516	0.027332
459.5723	0.025835
459.7931	0.028787
460.0138	0.027101
460.2346	0.027417
460.4554	0.026131
460.6762	0.026658
460.8970	0.028134
461.1178	0.024655
461.3387	0.026110
461.5595	0.027375
461.7804	0.024887
462.0013	0.025709
462.2222	0.024149
462.4431	0.024296
462.6640	0.023052
462.8849	0.024950
463.1059	0.024887
463.3268	0.025730
463.5478	0.027838
463.7687	0.028408
463.9897	0.028619
464.2107	0.029272
464.4317	0.029610
464.6528	0.030622
464.8738	0.031107
465.0948	0.032646
465.3159	0.030727
465.5370	0.032920
465.7581	0.033531
465.9792	0.033489
466.2003	0.032772
466.4214	0.032878
466.6425	0.028555
466.8637	0.029504
467.0848	0.027459
467.3060	0.026236
467.5272	0.026932
467.7484	0.028323
467.9696	0.027311
468.1908	0.027817
468.4120	0.027164
468.6333	0.027607
468.8545	0.027290
469.0758	0.026953
469.2970	0.025308
469.5183	0.024212
469.7396	0.025983
469.9610	0.024043
470.1823	0.024107
470.4036	0.022631
470.6250	0.024022
470.8463	0.024549
471.0677	0.024254
471.2891	0.024866
471.5105	0.023221
471.7319	0.023811
471.9533	0.025119
472.1748	0.023305
472.3962	0.024887
472.6177	0.024486
472.8391	0.025604
473.0606	0.026784
473.2821	0.025372
473.5036	0.030179
473.7251	0.025983
473.9467	0.026131
474.1682	0.026341
474.3898	0.025835
474.6113	0.027311
474.8329	0.026173
475.0545	0.029799
475.2761	0.028872
475.4977	0.030284
475.7193	0.030369
475.9410	0.026637
476.1626	0.028724
476.3843	0.029209
476.6060	0.029167
476.8277	0.025519
477.0494	0.027185
477.2711	0.026173
477.4928	0.025941
477.7145	0.028977
477.9363	0.029947
478.1580	0.030938
478.3798	0.030137
478.6016	0.028598
478.8234	0.029378
479.0452	0.028534
479.2670	0.028281
479.4888	0.029968
479.7107	0.029357
479.9325	0.031465
480.1544	0.032857
480.3763	0.031444
480.5982	0.031402
480.8201	0.029905
481.0420	0.030474
481.2639	0.029842
481.4859	0.030305
481.7078	0.030959
481.9298	0.030980
482.1517	0.033173
482.3737	0.030938
482.5957	0.032393
482.8177	0.030453
483.0398	0.030095
483.2618	0.031107
483.4838	0.031908
483.7059	0.031971
483.9280	0.032393
484.1501	0.032203
484.3721	0.033215
484.5943	0.036694
484.8164	0.038697
485.0385	0.035429
485.2606	0.038570
485.4828	0.049766
485.7050	0.082131
485.9271	0.113083
486.1493	0.121559
486.3715	0.102983
486.5937	0.077260
486.8160	0.067962
487.0382	0.062333
487.2605	0.058137
487.4827	0.045634
487.7050	0.037896
487.9273	0.036736
488.1496	0.034564
488.3719	0.033763
488.5942	0.032709
488.8165	0.032983
489.0389	0.031613
489.2612	0.033320
489.4836	0.031191
489.7060	0.033426
489.9284	0.032519
490.1508	0.032034
490.3732	0.032055
490.5956	0.029884
490.8180	0.033363
491.0405	0.031317
491.2630	0.034417
491.4854	0.031528
491.7079	0.031444
491.9304	0.031971
492.1529	0.033320
492.3755	0.031022
492.5980	0.032372
492.8205	0.031360
493.0431	0.033721
493.2657	0.029631
493.4882	0.033679
493.7108	0.033826
493.9334	0.032730
494.1561	0.033384
494.3787	0.033489
494.6013	0.031549
494.8240	0.033342
495.0466	0.031360
495.2693	0.030516
495.4920	0.030179
495.7147	0.029947
495.9374	0.030369
496.1601	0.032730
496.3829	0.034164
496.6056	0.035998
496.8284	0.033721
497.0511	0.032751
497.2739	0.033932
497.4967	0.030158
497.7195	0.030579
497.9423	0.027459
498.1652	0.030010
498.3880	0.030622
498.6109	0.033911
498.8337	0.031107
499.0566	0.031507
499.2795	0.034459
499.5024	0.033426
499.7253	0.035787
499.9482	0.033763
500.1712	0.034543
500.3941	0.031655
500.6171	0.033131
500.8400	0.030052
501.0630	0.033742
501.2860	0.033236
501.5090	0.034311
501.7320	0.033869
501.9551	0.032793
502.1781	0.032857
502.4012	0.035218
502.6242	0.034016
502.8473	0.034079
503.0704	0.032161
503.2935	0.034375
503.5166	0.034079
503.7397	0.036462
503.9628	0.033573
504.1860	0.031950
504.4092	0.031233
504.6323	0.033342
504.8555	0.030284
505.0787	0.031233
505.3019	0.031676
505.5251	0.032941
505.7483	0.032351
505.9716	0.032667
506.1948	0.031043
506.4181	0.029504
506.6414	0.032646
506.8647	0.031739
507.0880	0.029799
507.3113	0.030221
507.5346	0.029146
507.7579	0.031296
507.9813	0.029673
508.2046	0.030558
508.4280	0.030854
508.6514	0.031423
508.8748	0.030369
509.0982	0.030875
509.3216	0.027649
509.5450	0.030179
509.7685	0.027691
509.9919	0.028661
510.2154	0.030811
510.4388	0.030875
510.6623	0.031613
510.8858	0.027796
511.1093	0.028049
511.3329	0.032224
511.5564	0.030095
511.7799	0.029082
512.0035	0.031296
512.2270	0.027501
512.4506	0.029209
512.6742	0.028092
512.8978	0.028366
513.1214	0.027206
513.3451	0.029125
513.5687	0.027986
513.7923	0.026848
514.0160	0.028007
514.2397	0.028914
514.4634	0.027712
514.6871	0.029504
514.9108	0.028302
515.1345	0.024802
515.3582	0.026531
515.5819	0.025329
515.8057	0.026341
516.0295	0.025308
516.2532	0.028450
516.4770	0.025604
516.7008	0.027459
516.9246	0.025203
517.1485	0.026025
517.3723	0.026110
517.5961	0.027649
517.8200	0.023959
518.0439	0.024929
518.2677	0.023727
518.4916	0.025203
518.7155	0.026721
518.9395	0.027164
519.1634	0.026405
519.3873	0.025308
519.6113	0.026721
519.8352	0.027585
520.0592	0.025688
520.2832	0.023832
520.5072	0.022504
520.7312	0.023474
520.9552	0.022631
521.1792	0.023685
521.4033	0.023432
521.6273	0.024444
521.8514	0.023116
522.0755	0.023221
522.2996	0.023980
522.5237	0.023200
522.7478	0.022694
522.9719	0.023137
523.1960	0.024001
523.4202	0.022926
523.6443	0.024043
523.8685	0.022483
524.0927	0.024170
524.3169	0.023474
524.5411	0.023411
524.7653	0.021745
524.9895	0.022040
525.2138	0.024655
525.4380	0.023811
525.6623	0.023832
525.8865	0.024149
526.1108	0.021956
526.3351	0.023432
526.5594	0.024317
526.7837	0.023348
527.0081	0.024971
527.2324	0.024170
527.4568	0.023031
527.6811	0.023938
527.9055	0.023896
528.1299	0.022441
528.3543	0.022335
528.5787	0.024971
528.8031	0.025688
529.0276	0.027923
529.2520	0.026510
529.4765	0.026257
529.7009	0.023854
529.9254	0.024149
530.1499	0.025519
530.3744	0.024549
530.5989	0.023980
530.8234	0.025899
531.0480	0.021893
531.2725	0.022230
531.4971	0.023790
531.7217	0.024908
531.9462	0.025034
532.1708	0.024613
532.3954	0.022736
532.6200	0.025224
532.8447	0.026046
533.0693	0.025140
533.2940	0.025878
533.5186	0.027480
533.7433	0.028977
533.9680	0.030073
534.1927	0.027016
534.4174	0.028703
534.6421	0.029757
534.8668	0.030495
535.0916	0.030769
535.3163	0.029884
535.5411	0.030116
535.7659	0.026890
535.9907	0.027375
536.2155	0.028787
536.4403	0.026384
536.6651	0.025878
536.8899	0.025266
537.1148	0.025561
537.3396	0.024992
537.5645	0.027923
537.7894	0.027986
538.0143	0.027881
538.2392	0.026384
538.4641	0.029146
538.6890	0.026637
538.9139	0.029188
539.1389	0.030326
539.3638	0.029863
539.5888	0.028829
539.8138	0.029104
540.0388	0.028808
540.2638	0.029251
540.4888	0.028661
540.7138	0.028281
540.9389	0.029420
541.1639	0.031718
541.3890	0.028872
541.6140	0.028998
541.8391	0.029104
542.0642	0.030516
542.2893	0.030854
542.5144	0.033342
542.7396	0.030263
542.9647	0.030411
543.1899	0.028492
543.4150	0.030390
543.6402	0.030601
543.8654	0.029483
544.0906	0.032709
544.3158	0.032182
544.5410	0.032224
544.7662	0.031275
544.9915	0.033173
545.2167	0.031971
545.4420	0.032161
545.6673	0.031929
545.8926	0.030221
546.1179	0.029167
546.3432	0.029251
546.5685	0.030811
546.7938	0.028092
547.0192	0.030284
547.2445	0.030516
547.4699	0.033468
547.6953	0.034438
547.9206	0.034860
548.1460	0.037137
548.3715	0.036652
548.5969	0.034248
548.8223	0.034354
549.0478	0.034016
549.2732	0.033046
549.4987	0.032140
549.7242	0.030432
549.9496	0.031423
550.1751	0.031760
550.4007	0.030242
550.6262	0.029757
550.8517	0.030516
551.0773	0.031296
551.3028	0.029525
551.5284	0.028576
551.7540	0.028682
551.9796	0.030664
552.2052	0.031634
552.4308	0.035408
552.6564	0.034248
552.8820	0.033257
553.1077	0.032625
553.3333	0.033616
553.5590	0.034290
553.7847	0.036251
554.0104	0.031887
554.2361	0.035070
554.4618	0.032751
554.6875	0.030727
554.9132	0.031971
555.1390	0.031043
555.3648	0.033342
555.5905	0.032920
555.8163	0.033131
556.0421	0.035176
556.2679	0.037875
556.4937	0.034037
556.7195	0.031528
556.9454	0.033700
557.1712	0.030348
557.3971	0.033468
557.6230	0.032372
557.8488	0.033489
558.0747	0.032098
558.3006	0.031739
558.5266	0.031676
558.7525	0.029125
558.9784	0.029525
559.2044	0.029546
559.4303	0.030137
559.6563	0.029525
559.8823	0.031486
560.1083	0.035872
560.3343	0.035260
560.5603	0.037242
560.7863	0.038866
561.0124	0.037305
561.2384	0.039203
561.4645	0.037348
561.6905	0.040679
561.9166	0.038486
562.1427	0.036736
562.3688	0.037095
562.5949	0.037369
562.8211	0.036441
563.0472	0.034564
563.2733	0.036399
563.4995	0.035408
563.7257	0.039456
563.9519	0.038043
564.1781	0.039330
564.4043	0.038191
564.6305	0.040552
564.8567	0.039709
565.0829	0.038802
565.3092	0.038444
565.5355	0.039498
565.7617	0.040384
565.9880	0.041543
566.2143	0.041944
566.4406	0.042640
566.6669	0.040869
566.8932	0.042935
567.1196	0.045781
567.3459	0.049281
567.5723	0.050715
567.7987	0.051348
568.0250	0.053498
568.2514	0.056766
568.4778	0.055438
568.7043	0.058369
568.9307	0.064336
569.1571	0.068215
569.3836	0.074730
569.6100	0.079242
569.8365	0.087381
570.0630	0.095773
570.2895	0.096658
570.5160	0.093917
570.7425	0.096258
570.9690	0.102414
571.1956	0.108149
571.4221	0.111944
571.6487	0.116815
571.8752	0.115465
572.1018	0.121791
572.3284	0.118417
572.5550	0.114053
572.7816	0.103996
573.0082	0.103679
573.2349	0.109730
573.4615	0.119682
573.6882	0.129761
573.9149	0.131553
574.1415	0.137246
574.3682	0.141631
574.5949	0.145469
574.8216	0.149664
575.0484	0.145996
575.2751	0.148315
575.5018	0.146270
575.7286	0.139460
575.9554	0.132481
576.1821	0.130478
576.4089	0.134842
576.6357	0.143255
576.8626	0.150023
577.0894	0.150929
577.3162	0.157128
577.5431	0.158309
577.7699	0.173722
577.9968	0.200499
578.2237	0.194553
578.4505	0.180869
578.6774	0.170791
578.9044	0.161493
579.1313	0.150550
579.3582	0.154661
579.5851	0.161408
579.8121	0.163348
580.0391	0.165309
580.2660	0.164613
580.4930	0.166405
580.7200	0.157908
580.9470	0.161345
581.1741	0.192698
581.4011	0.230692
581.6281	0.252240
581.8552	0.255550
582.0822	0.248424
582.3093	0.240180
582.5364	0.223523
582.7635	0.202165
582.9906	0.183104
583.2177	0.172794
583.4449	0.159258
583.6720	0.149601
583.8991	0.143592
584.1263	0.143402
584.3535	0.147767
584.5807	0.149475
584.8079	0.158794
585.0351	0.173743
585.2623	0.181818
585.4895	0.177454
585.7167	0.181418
585.9440	0.177053
586.1713	0.164634
586.3985	0.154893
586.6258	0.149011
586.8531	0.150339
587.0804	0.160502
587.3077	0.166743
587.5350	0.176568
587.7624	0.169652
587.9897	0.160670
588.2171	0.153839
588.4445	0.151541
588.6718	0.148020
588.8992	0.142496
589.1266	0.129444
589.3540	0.121179
589.5815	0.119851
589.8089	0.117595
590.0363	0.114938
590.2638	0.111628
590.4913	0.106758
590.7187	0.108655
590.9462	0.098134
591.1737	0.093833
591.4012	0.094402
591.6288	0.098893
591.8563	0.093538
592.0838	0.095456
592.3114	0.098387
592.5389	0.113694
592.7665	0.134652
592.9941	0.144457
593.2217	0.149116
593.4493	0.149728
593.6769	0.142538
593.9046	0.141947
594.1322	0.134821
594.3598	0.126219
594.5875	0.127441
594.8152	0.133682
595.0429	0.143086
595.2705	0.144625
595.4983	0.139438
595.7260	0.130056
595.9537	0.126872
596.1814	0.117300
596.4092	0.110405
596.6369	0.104649
596.8647	0.100221
597.0925	0.102604
597.3203	0.108044
597.5481	0.107327
597.7759	0.106652
598.0037	0.103342
598.2315	0.100200
598.4594	0.099483
598.6872	0.114833
598.9151	0.127990
599.1430	0.133472
599.3709	0.131722
599.5988	0.127273
599.8267	0.127884
600.0546	0.128854
600.2825	0.131932
600.5105	0.130035
600.7384	0.128749
600.9664	0.128559
601.1944	0.134505
601.4223	0.133767
601.6503	0.125818
601.8783	0.124321
602.1064	0.119577
602.3344	0.118797
602.5624	0.119324
602.7905	0.121137
603.0185	0.127716
603.2466	0.127884
603.4747	0.134631
603.7028	0.134399
603.9309	0.133282
604.1590	0.125944
604.3871	0.121496
604.6152	0.114833
604.8434	0.110490
605.0715	0.109730
605.2997	0.112914
605.5279	0.117237
605.7561	0.121306
605.9843	0.122929
606.2125	0.123161
606.4407	0.115191
606.6689	0.110996
606.8972	0.112303
607.1254	0.114221
607.3537	0.112029
607.5819	0.115086
607.8102	0.111417
608.0385	0.110806
608.2668	0.106547
608.4951	0.103911
608.7235	0.102773
608.9518	0.102330
609.1801	0.097459
609.4085	0.092504
609.6369	0.091956
609.8653	0.098956
610.0936	0.104333
610.3220	0.108740
610.5505	0.104544
610.7789	0.101444
611.0073	0.098577
611.2357	0.098197
611.4642	0.098893
611.6927	0.096995
611.9211	0.099062
612.1496	0.095541
612.3781	0.092821
612.6066	0.089089
612.8351	0.089300
613.0637	0.089595
613.2922	0.090670
613.5208	0.090902
613.7493	0.088267
613.9779	0.089152
614.2065	0.091767
614.4351	0.091282
614.6637	0.090670
614.8923	0.087276
615.1209	0.088625
615.3495	0.093179
615.5782	0.090101
615.8068	0.096215
616.0355	0.088224
616.2642	0.083333
616.4929	0.081456
616.7216	0.079306
616.9503	0.077260
617.1790	0.079685
617.4077	0.076206
617.6365	0.077408
617.8652	0.078251
618.0940	0.076649
618.3227	0.076396
618.5515	0.074815
618.7803	0.067098
619.0091	0.066149
619.2379	0.065053
619.4667	0.062480
619.6956	0.062269
619.9244	0.065812
620.1533	0.067477
620.3821	0.071568
620.6110	0.070176
620.8399	0.063260
621.0688	0.053625
621.2977	0.052507
621.5266	0.053730
621.7556	0.054595
621.9845	0.058221
622.2135	0.057947
622.4424	0.060224
622.6714	0.059465
622.9004	0.062459
623.1294	0.061932
623.3584	0.061553
623.5874	0.063450
623.8164	0.063176
624.0454	0.061553
624.2745	0.061426
624.5035	0.063956
624.7326	0.065053
624.9617	0.063281
625.1908	0.061447
625.4199	0.060309
625.6490	0.054932
625.8781	0.057589
626.1072	0.054426
626.3364	0.054110
626.5655	0.051558
626.7947	0.049113
627.0238	0.050083
627.2530	0.047932
627.4822	0.049324
627.7114	0.049471
627.9406	0.046793
628.1698	0.044727
628.3991	0.043420
628.6283	0.040953
628.8576	0.040489
629.0868	0.042513
629.3161	0.042893
629.5454	0.045571
629.7747	0.045128
630.0040	0.044580
630.2333	0.044137
630.4626	0.043357
630.6920	0.040869
630.9213	0.040215
631.1507	0.038128
631.3801	0.036715
631.6094	0.037685
631.8388	0.037284
632.0682	0.036504
632.2976	0.036462
632.5271	0.035049
632.7565	0.033489
632.9859	0.032098
633.2154	0.031107
633.4448	0.031043
633.6743	0.033257
633.9038	0.032814
634.1333	0.029905
634.3628	0.030811
634.5923	0.028956
634.8218	0.029652
635.0514	0.028070
635.2809	0.030305
635.5105	0.028935
635.7400	0.029167
635.9696	0.030832
636.1992	0.031275
636.4288	0.032245
636.6584	0.033679
636.8880	0.032667
637.1177	0.031718
637.3473	0.030390
637.5770	0.028724
637.8066	0.028598
638.0363	0.030263
638.2660	0.029167
638.4957	0.030516
638.7254	0.031549
638.9551	0.030179
639.1848	0.029188
639.4145	0.028576
639.6443	0.026738
639.8740	0.026206
640.1038	0.025219
640.3336	0.027636
640.5633	0.026511
640.7931	0.026352
641.0229	0.026468
641.2528	0.023617
641.4826	0.023079
641.7124	0.024222
641.9423	0.023888
642.1721	0.023475
642.4020	0.022603
642.6319	0.020546
642.8617	0.020374
643.0916	0.020629
643.3216	0.022695
643.5515	0.021827
643.7814	0.021581
644.0113	0.020046
644.2413	0.019411
644.4712	0.020065
644.7012	0.020495
644.9312	0.019281
645.1612	0.020215
645.3912	0.019133
645.6212	0.020408
645.8512	0.020275
646.0812	0.020465
646.3113	0.019400
646.5413	0.017178
646.7714	0.018675
647.0015	0.018219
647.2316	0.018119
647.4616	0.016678
647.6918	0.018886
647.9219	0.022087
648.1520	0.020909
648.3821	0.022781
648.6123	0.024180
648.8424	0.022842
649.0726	0.026391
649.3028	0.025133
649.5329	0.024717
649.7631	0.025375
649.9933	0.025027
650.2236	0.022096
650.4538	0.020964
650.6840	0.021854
650.9143	0.020127
651.1445	0.020408
651.3748	0.020612
651.6051	0.019324
651.8354	0.022322
652.0657	0.021457
652.2960	0.022621
652.5263	0.024048
652.7566	0.023502
652.9870	0.022527
653.2173	0.024677
653.4477	0.024028
653.6780	0.023159
653.9084	0.022589
654.1388	0.024846
654.3692	0.025157
654.5996	0.024983
654.8300	0.031005
655.0605	0.041771
655.2909	0.112026
655.5213	0.336030
655.7518	0.707148
655.9823	0.933787
656.2128	0.981934
656.4433	0.963912
656.6738	0.924701
656.9043	0.788078
657.1348	0.624629
657.3653	0.507706
657.5959	0.427585
657.8264	0.370363
658.0570	0.337145
658.2875	0.309074
658.5181	0.275336
658.7487	0.261365
658.9793	0.248788
659.2099	0.198391
659.4406	0.133452
659.6712	0.083172
659.9018	0.048426
660.1325	0.031923
660.3632	0.023726
660.5938	0.020518
660.8245	0.017319
661.0552	0.017546
661.2859	0.016996
661.5166	0.017593
661.7474	0.016216
661.9781	0.017538
662.2088	0.016960
662.4396	0.016843
662.6704	0.017397
662.9011	0.015079
663.1319	0.017564
663.3627	0.015764
663.5935	0.017029
663.8243	0.014868
664.0552	0.016107
664.2860	0.015419
664.5168	0.016630
664.7477	0.016508
664.9786	0.017673
665.2094	0.018684
665.4403	0.018754
665.6712	0.018440
665.9021	0.017466
666.1330	0.018590
666.3640	0.017562
666.5949	0.016134
666.8259	0.014812
667.0568	0.016386
667.2878	0.014448
667.5188	0.018207
667.7497	0.015614
667.9807	0.014842
668.2117	0.015463
668.4428	0.014893
668.6738	0.014935
668.9048	0.017022
669.1359	0.014850
669.3669	0.016347
669.5980	0.014239
669.8291	0.016769
670.0602	0.014935
670.2913	0.017107
670.5224	0.015884
670.7535	0.015251
670.9846	0.016453
671.2157	0.018456
671.4469	0.018920
671.6781	0.020269
671.9092	0.021682
672.1404	0.025203
672.3716	0.024254
672.6028	0.026173
672.8340	0.025182
673.0652	0.024950
673.2964	0.022546
673.5277	0.023537
673.7589	0.022125
673.9902	0.022905
674.2214	0.022209
674.4527	0.020585
674.6840	0.019489
674.9153	0.019932
675.1466	0.019173
675.3779	0.020607
675.6093	0.019932
675.8406	0.018646
676.0719	0.018498
676.3033	0.018920
676.5347	0.017887
676.7661	0.019152
676.9974	0.018097
677.2288	0.017064
677.4602	0.019236
677.6917	0.020986
677.9231	0.022715
678.1545	0.022209
678.3860	0.021281
678.6174	0.022504
678.8489	0.021935
679.0804	0.023664
679.3119	0.022167
679.5434	0.027438
679.7749	0.026173
680.0064	0.026805
680.2379	0.024908
680.4694	0.027396
680.7010	0.025013
680.9325	0.025055
681.1641	0.024254
681.3957	0.024528
681.6273	0.024634
681.8589	0.026088
682.0905	0.024570
682.3221	0.024170
682.5537	0.023706
682.7854	0.021682
683.0170	0.021513
683.2487	0.022525
683.4803	0.023263
683.7120	0.023094
683.9437	0.021766
684.1754	0.024043
684.4071	0.025941
684.6388	0.029631
684.8705	0.028070
685.1023	0.028829
685.3340	0.031339
685.5658	0.031739
685.7975	0.033173
686.0293	0.034227
686.2611	0.032245
686.4929	0.034564
686.7247	0.033194
686.9565	0.033215
687.1883	0.031697
687.4202	0.031423
687.6520	0.032709
687.8838	0.028049
688.1157	0.029399
688.3476	0.030284
688.5795	0.027965
688.8114	0.026426
689.0433	0.026405
689.2752	0.028513
689.5071	0.026848
689.7390	0.026405
689.9710	0.025604
690.2029	0.025857
690.4349	0.025477
690.6669	0.024950
690.8988	0.024866
691.1308	0.028323
691.3628	0.027417
691.5948	0.029167
691.8269	0.027016
692.0589	0.026784
692.2909	0.026974
692.5230	0.028808
692.7550	0.027185
692.9871	0.026763
693.2192	0.029884
693.4513	0.029842
693.6834	0.028471
693.9155	0.025793
694.1476	0.024613
694.3797	0.025582
694.6119	0.022588
694.8440	0.022884
695.0762	0.025730
695.3083	0.027122
695.5405	0.023854
695.7727	0.022019
696.0049	0.021787
696.2371	0.021808
696.4693	0.022399
696.7016	0.025709
696.9338	0.029357
697.1660	0.031191
697.3983	0.029019
697.6306	0.031170
697.8628	0.028598
698.0951	0.030052
698.3274	0.028977
698.5597	0.029757
698.7920	0.027206
699.0243	0.027902
699.2567	0.025393
699.4890	0.024613
699.7214	0.025203
699.9537	0.023537
700.1861	0.024170
700.4185	0.022926
700.6509	0.022378
700.8833	0.021555
701.1157	0.022567
701.3481	0.020986
701.5806	0.020332
701.8130	0.021302
702.0454	0.022546
702.2779	0.020670
702.5104	0.023832
702.7429	0.023622
702.9753	0.023643
703.2078	0.020817
703.4403	0.021323
703.6729	0.020754
703.9054	0.019805
704.1379	0.021218
704.3705	0.022399
704.6030	0.020712
704.8356	0.020480
705.0682	0.017591
705.3008	0.018920
705.5334	0.016685
705.7660	0.018266
705.9986	0.019679
706.2312	0.019974
706.4638	0.021787
706.6965	0.025941
706.9291	0.028893
707.1618	0.029167
707.3945	0.028281
707.6272	0.028323
707.8599	0.027585
708.0926	0.027206
708.3253	0.028302
708.5580	0.027775
708.7907	0.027269
709.0235	0.025835
709.2562	0.023390
709.4890	0.023137
709.7217	0.024317
709.9545	0.022884
710.1873	0.027016
710.4201	0.025646
710.6529	0.028598
710.8857	0.026468
711.1186	0.024001
711.3514	0.023643
711.5842	0.022715
711.8171	0.023116
712.0500	0.023137
712.2828	0.022504
712.5157	0.020817
712.7486	0.022863
712.9815	0.021808
713.2144	0.021661
713.4474	0.025245
713.6803	0.025540
713.9132	0.024887
714.1462	0.026131
714.3791	0.025119
714.6121	0.027438
714.8451	0.024929
715.0781	0.026510
715.3111	0.024739
715.5441	0.024486
715.7771	0.024085
716.0102	0.021323
716.2432	0.021661
716.4762	0.020796
716.7093	0.021513
716.9424	0.020649
717.1754	0.022146
717.4085	0.019953
717.6416	0.021049
717.8747	0.020417
718.1078	0.021576
718.3410	0.021429
718.5741	0.021239
718.8072	0.020101
719.0404	0.021534
719.2736	0.023453
719.5067	0.022167
719.7399	0.022125
719.9731	0.022188
720.2063	0.021513
720.4395	0.021724
720.6727	0.021534
720.9060	0.019679
721.1392	0.024360
721.3725	0.021661
721.6057	0.021113
721.8390	0.022462
722.0723	0.022926
722.3055	0.022251
722.5388	0.021218
722.7721	0.021155
723.0055	0.020944
723.2388	0.021555
723.4721	0.022546
723.7055	0.019363
723.9388	0.022357
724.1722	0.019067
724.4056	0.020185
724.6389	0.020902
724.8723	0.022884
725.1057	0.022104
725.3391	0.023284
725.5726	0.023706
725.8060	0.025245
726.0394	0.024128
726.2729	0.026067
726.5063	0.024275
726.7398	0.023832
726.9733	0.023495
727.2068	0.023516
727.4403	0.025098
727.6738	0.022673
727.9073	0.025540
728.1408	0.024676
728.3743	0.023601
728.6079	0.026763
728.8414	0.025983
729.0750	0.025161
729.3086	0.025519
729.5421	0.027522
729.7757	0.028197
730.0093	0.028661
730.2429	0.027691
730.4766	0.026573
730.7102	0.027902
730.9438	0.032899
731.1775	0.033257
731.4111	0.032140
731.6448	0.034269
731.8785	0.031444
732.1122	0.033067
732.3458	0.029610
732.5795	0.032435
732.8133	0.033131
733.0470	0.031465
733.2807	0.032119
733.5145	0.033384
733.7482	0.035007
733.9820	0.033974
734.2157	0.036420
734.4495	0.039034
734.6833	0.037917
734.9171	0.034902
735.1509	0.034923
735.3847	0.034923
735.6185	0.038275
735.8524	0.035155
736.0862	0.034712
736.3201	0.035576
736.5539	0.033658
736.7878	0.035302
737.0217	0.038191
737.2556	0.036083
737.4895	0.034333
737.7234	0.033131
737.9573	0.032203
738.1912	0.028492
738.4252	0.032372
738.6591	0.027733
738.8931	0.029989
739.1271	0.031191
739.3610	0.032857
739.5950	0.034375
739.8290	0.033869
740.0630	0.034311
740.2970	0.033131
740.5310	0.029799
740.7651	0.028323
740.9991	0.028555
741.2332	0.026552
741.4672	0.026384
741.7013	0.025646
741.9354	0.023390
742.1695	0.025393
742.4036	0.024634
742.6377	0.027101
742.8718	0.025962
743.1059	0.027438
743.3400	0.023832
743.5742	0.023790
743.8083	0.023706
744.0425	0.023010
744.2767	0.022588
744.5108	0.022588
744.7450	0.022588
744.9792	0.019911
745.2134	0.020332
745.4477	0.019341
745.6819	0.023200
745.9161	0.021745
746.1504	0.021323
746.3846	0.020923
746.6189	0.019932
746.8532	0.020079
747.0874	0.020796
747.3217	0.024992
747.5560	0.023854
747.7903	0.023221
748.0247	0.024191
748.2590	0.023305
748.4933	0.022483
748.7277	0.021977
748.9620	0.021935
749.1964	0.024507
749.4308	0.024043
749.6652	0.024423
749.8995	0.025182
750.1339	0.028218
750.3684	0.029589
750.6028	0.033489
750.8372	0.029146
751.0717	0.030095
751.3061	0.026700
751.5406	0.027838
751.7750	0.029968
752.0095	0.031655
752.2440	0.031275
752.4785	0.029799
752.7130	0.026215
752.9475	0.027101
753.1820	0.028619
753.4166	0.028070
753.6511	0.031381
753.8856	0.032899
754.1202	0.031613
754.3548	0.030685
754.5894	0.029167
754.8239	0.031170
755.0585	0.030558
755.2931	0.030263
755.5278	0.030537
755.7624	0.033447
755.9970	0.033890
756.2317	0.033974
756.4663	0.037200
756.7010	0.035851
756.9356	0.038254
757.1703	0.040932
757.4050	0.040089
757.6397	0.044305
757.8744	0.043525
758.1091	0.042893
758.3438	0.040784
758.5786	0.038992
758.8133	0.040194
759.0481	0.039836
759.2828	0.043884
759.5176	0.043441
759.7524	0.045613
759.9872	0.044348
760.2220	0.048375
760.4568	0.044748
760.6916	0.047932
760.9264	0.046498
761.1613	0.047089
761.3961	0.043146
761.6310	0.042324
761.8658	0.037453
762.1007	0.038570
762.3356	0.035914
762.5705	0.034375
762.8054	0.037875
763.0403	0.036926
763.2752	0.039772
763.5101	0.038275
763.7450	0.036694
763.9800	0.037896
764.2149	0.041333
764.4499	0.043399
764.6849	0.043525
764.9198	0.042197
765.1548	0.043673
765.3898	0.044010
765.6248	0.040911
765.8599	0.040067
766.0949	0.035935
766.3299	0.035935
766.5650	0.033257
766.8000	0.031465
767.0351	0.030095
767.2701	0.029757
767.5052	0.028070
767.7403	0.029104
767.9754	0.029188
768.2105	0.031760
768.4456	0.033110
768.6808	0.036251
768.9159	0.035471
769.1510	0.035914
769.3862	0.036525
769.6214	0.033595
769.8565	0.032582
770.0917	0.035598
770.3269	0.034564
770.5621	0.033700
770.7973	0.035155
771.0325	0.039055
771.2677	0.036968
771.5030	0.036420
771.7382	0.034501
771.9735	0.032456
772.2087	0.030601
772.4440	0.030263
772.6793	0.030095
772.9146	0.031043
773.1499	0.031402
773.3852	0.028998
773.6205	0.027923
773.8558	0.027564
774.0911	0.027733
774.3265	0.024866
774.5618	0.023769
774.7972	0.023516
775.0326	0.023305
775.2679	0.021661
775.5033	0.021555
775.7387	0.020775
775.9741	0.020438
776.2095	0.019468
776.4450	0.019911
776.6804	0.020733
776.9158	0.018456
777.1513	0.020079
777.3868	0.017486
777.6222	0.018203
777.8577	0.017992
778.0932	0.018920
778.3287	0.017887
778.5642	0.019932
778.7997	0.021745
779.0352	0.022167
779.2707	0.023516
779.5063	0.024275
779.7418	0.023179
779.9774	0.023221
780.2130	0.020754
780.4485	0.022167
780.6841	0.020227
780.9197	0.023664
781.1553	0.024971
781.3909	0.026974
781.6265	0.027670
781.8622	0.025245
782.0978	0.025098
782.3335	0.025582
782.5691	0.025709
782.8048	0.026763
783.0405	0.025751
783.2761	0.023010
783.5118	0.024275
783.7475	0.025372
783.9832	0.026215
784.2190	0.025182
784.4547	0.020902
784.6904	0.022125
784.9262	0.019594
785.1619	0.022694
785.3977	0.023116
785.6335	0.021724
785.8692	0.021745
786.1050	0.021113
786.3408	0.022525
786.5766	0.023116
786.8124	0.021344
787.0483	0.021450
787.2841	0.020881
787.5199	0.022905
787.7558	0.022968
787.9917	0.020775
788.2275	0.021576
788.4634	0.024064
788.6993	0.023094
788.9352	0.025245
789.1711	0.023495
789.4070	0.025266
789.6429	0.019531
789.8789	0.020649
790.1148	0.020522
790.3507	0.021134
790.5867	0.019637
790.8227	0.019215
791.0586	0.018224
791.2946	0.018034
791.5306	0.017549
791.7666	0.017950
792.0026	0.018350
792.2387	0.016200
792.4747	0.016432
792.7107	0.017718
792.9468	0.017149
793.1828	0.016474
793.4189	0.016896
793.6550	0.017296
793.8910	0.019742
794.1271	0.023390
794.3632	0.024802
794.5993	0.024866
794.8355	0.023558
795.0716	0.023495
795.3077	0.025245
795.5439	0.023769
795.7800	0.022125
796.0162	0.021344
796.2523	0.018393
796.4885	0.016832
796.7247	0.015799
796.9609	0.015757
797.1971	0.015588
797.4333	0.016347
797.6695	0.016875
797.9058	0.016727
798.1420	0.017149
798.3783	0.017844
798.6145	0.016263
798.8508	0.018625
799.0871	0.016284
799.3233	0.016959
799.5596	0.016896
799.7959	0.016959
800.0322	0.015926
800.2686	0.015715
800.5049	0.014914
800.7412	0.014808
800.9776	0.014745
801.2139	0.014049
801.4503	0.013691
801.6867	0.013902
801.9230	0.013058
802.1594	0.012826
802.3958	0.012594
802.6322	0.012004
802.8686	0.012890
803.1051	0.012805
803.3415	0.011962
803.5779	0.013606
803.8144	0.013353
804.0508	0.013775
804.2873	0.011603
804.5238	0.013058
804.7603	0.011266
804.9968	0.011224
805.2333	0.013122
805.4698	0.014134
805.7063	0.012384
805.9428	0.014745
806.1794	0.016558
806.4159	0.018372
806.6525	0.018266
806.8890	0.016643
807.1256	0.018498
807.3622	0.018013
807.5988	0.017528
807.8354	0.018266
808.0720	0.017676
808.3086	0.017423
808.5452	0.018435
808.7818	0.017613
809.0185	0.018772
809.2551	0.017233
809.4918	0.014576
809.7284	0.015884
809.9651	0.014977
810.2018	0.014239
810.4385	0.014070
810.6752	0.013649
810.9119	0.012826
811.1486	0.015146
811.3853	0.015841
811.6221	0.013585
811.8588	0.013817
812.0956	0.013058
812.3323	0.012004
812.5691	0.010359
812.8059	0.010381
813.0427	0.011456
813.2795	0.013459
813.5163	0.011329
813.7531	0.012341
813.9899	0.015757
814.2267	0.015272
814.4636	0.014513
814.7004	0.013100
814.9373	0.012552
815.1742	0.013733
815.4110	0.013311
815.6479	0.011625
815.8848	0.011203
816.1217	0.011603
816.3586	0.009643
816.5955	0.011076
816.8324	0.011203
817.0694	0.011182
817.3063	0.010043
817.5433	0.011793
817.7802	0.010570
818.0172	0.012004
818.2542	0.010591
818.4912	0.011709
818.7282	0.011224
818.9652	0.009917
819.2022	0.009811
819.4392	0.009938
819.6762	0.010106
819.9133	0.008989
820.1503	0.008631
820.3874	0.010634
820.6244	0.009917
820.8615	0.011646
821.0986	0.011603
821.3357	0.011814
821.5727	0.012995
821.8099	0.010676
822.0470	0.010697
822.2841	0.010043
822.5212	0.012173
822.7584	0.010043
822.9955	0.010697
823.2327	0.008335
823.4698	0.009242
823.7070	0.009158
823.9442	0.009917
824.1814	0.008968
824.4186	0.009179
824.6558	0.008588
824.8930	0.008483
825.1302	0.009938
825.3675	0.010106
825.6047	0.011013
825.8419	0.009748
826.0792	0.010802
826.3165	0.010043
826.5537	0.008209
826.7910	0.009875
827.0283	0.010359
827.2656	0.010528
827.5029	0.010064
827.7402	0.010549
827.9776	0.011076
828.2149	0.010655
828.4522	0.008272
828.6896	0.007007
828.9270	0.011034
829.1643	0.010992
829.4017	0.009727
829.6391	0.008420
829.8765	0.009917
830.1139	0.008862
830.3513	0.009200
830.5887	0.008588
830.8261	0.008272
831.0636	0.007513
831.3010	0.007956
831.5385	0.006227
831.7759	0.007408
832.0134	0.006185
832.2509	0.005911
832.4884	0.005974
832.7259	0.007492
832.9634	0.007281
833.2009	0.007323
833.4384	0.008125
833.6759	0.007998
833.9135	0.008040
834.1510	0.008314
834.3886	0.008694
834.6261	0.010317
834.8637	0.007218
835.1013	0.007956
835.3389	0.007576
835.5765	0.008609
835.8141	0.007534
836.0517	0.008567
836.2893	0.006649
836.5269	0.007239
836.7646	0.006311
837.0022	0.006058
837.2399	0.005236
837.4775	0.006206
837.7152	0.005341
837.9529	0.005320
838.1906	0.005236
838.4283	0.005468
838.6660	0.003317
838.9037	0.004814
839.1414	0.003612
839.3791	0.005742
839.6169	0.004308
839.8546	0.005173
840.0924	0.006480
840.3302	0.005911
840.5679	0.006480
840.8057	0.004772
841.0435	0.005552
841.2813	0.005995
841.5191	0.006185
841.7569	0.006543
841.9947	0.005257
842.2326	0.004498
842.4704	0.005004
842.7082	0.004118
842.9461	0.004435
843.1840	0.003802
843.4218	0.004456
843.6597	0.005067
843.8976	0.005974
844.1355	0.003064
844.3734	0.004076
844.6113	0.003381
844.8492	0.005067
845.0872	0.004540
845.3251	0.005088
845.5631	0.003992
845.8010	0.005679
846.0390	0.004772
846.2770	0.004161
846.5149	0.004118
846.7529	0.002326
846.9909	0.004582
847.2289	0.004350
847.4669	0.004161
847.7050	0.004561
847.9430	0.003887
848.1810	0.003275
848.4191	0.005320
848.6571	0.004772
848.8952	0.004688
849.1333	0.003823
849.3713	0.005131
849.6094	0.003655
849.8475	0.004962
850.0856	0.004456
850.3237	0.004561
850.5619	0.003296
850.8000	0.003064
851.0381	0.005278
851.2763	0.003823
851.5144	0.002537
851.7526	0.005299
851.9908	0.004034
852.2289	0.006185
852.4671	0.005362
852.7053	0.007492
852.9435	0.006881
853.1817	0.011456
853.4200	0.009558
853.6582	0.011414
853.8964	0.011498
854.1347	0.010106
854.3729	0.010739
854.6112	0.011688
854.8495	0.011414
855.0877	0.011477
855.3260	0.009453
855.5643	0.009411
855.8026	0.010191
856.0409	0.008694
856.2792	0.009875
856.5176	0.010212
856.7559	0.009432
856.9942	0.008525
857.2326	0.009284
857.4710	0.008504
857.7093	0.007703
857.9477	0.008420
858.1861	0.007682
858.4245	0.007914
858.6629	0.006543
858.9013	0.006649
859.1397	0.007576
859.3781	0.007260
859.6166	0.008167
859.8550	0.007640
860.0935	0.005257
860.3319	0.007281
860.5704	0.006438
860.8089	0.006290
861.0473	0.005426
861.2858	0.005215
861.5243	0.003317
861.7628	0.006817
862.0013	0.007513
862.2399	0.005721
862.4784	0.003718
862.7169	0.004688
862.9555	0.005510
863.1940	0.005046
863.4326	0.005131
863.6712	0.005995
863.9098	0.004688
864.1483	0.006480
864.3869	0.004245
864.6255	0.004751
864.8642	0.005025
865.1028	0.004688
865.3414	0.003381
865.5800	0.004456
865.8187	0.004245
866.0573	0.005573
866.2960	0.004625
866.5347	0.004899
866.7733	0.004561
867.0120	0.005510
867.2507	0.005405
867.4894	0.004245
867.7281	0.007682
867.9669	0.004287
868.2056	0.004519
868.4443	0.005215
868.6831	0.004372
868.9218	0.003296
869.1606	0.003191
869.3993	0.004962
869.6381	0.003549
869.8769	0.003549
870.1157	0.004203
870.3545	0.004751
870.5933	0.002980
870.8321	0.004751
871.0709	0.005869
871.3097	0.002516
871.5486	0.004835
871.7874	0.004477
872.0263	0.004013
872.2651	0.003423
872.5040	0.004688
872.7429	0.005341
872.9818	0.003781
873.2207	0.003844
873.4596	0.004709
873.6985	0.004245
873.9374	0.003359
874.1763	0.004308
874.4153	0.005637
874.6542	0.003296
874.8932	0.004182
875.1321	0.004983
875.3711	0.004688
875.6101	0.005447
875.8491	0.004899
876.0880	0.004730
876.3270	0.005088
876.5661	0.003950
876.8051	0.005004
877.0441	0.004372
877.2831	0.004561
877.5222	0.004667
877.7612	0.003844
878.0003	0.004835
878.2393	0.005805
878.4784	0.005784
878.7175	0.006164
878.9566	0.003865
879.1957	0.004856
879.4348	0.005953
879.6739	0.006965
879.9130	0.005531
880.1521	0.006944
880.3913	0.006164
880.6304	0.007703
880.8696	0.004920
881.1087	0.006543
881.3479	0.006733
881.5871	0.005805
881.8262	0.006375
882.0654	0.006670
882.3046	0.004076
882.5438	0.005974
882.7831	0.004878
883.0223	0.003486
883.2615	0.006944
883.5007	0.004161
883.7400	0.005131
883.9792	0.005721
884.2185	0.005173
884.4578	0.005299
884.6971	0.004899
884.9363	0.004835
885.1756	0.005721
885.4149	0.004688
885.6542	0.005257
885.8936	0.005152
886.1329	0.005805
886.3722	0.005995
886.6116	0.004140
886.8509	0.006649
887.0903	0.005995
887.3296	0.004899
887.5690	0.005679
887.8084	0.004751
888.0478	0.005025
888.2872	0.004561
888.5266	0.004688
888.7660	0.004561
889.0054	0.004055
889.2448	0.004582
889.4843	0.005721
889.7237	0.003823
889.9632	0.002727
890.2026	0.004118
890.4421	0.003823
890.6816	0.003971
890.9211	0.003064
891.1606	0.003929
891.4001	0.005215
891.6396	0.003001
891.8791	0.003275
892.1186	0.004899
892.3581	0.003465
892.5977	0.004013
892.8372	0.003444
893.0768	0.004350
893.3163	0.004793
893.5559	0.004350
893.7955	0.002938
894.0351	0.003254
894.2747	0.003001
894.5143	0.003317
894.7539	0.003507
894.9935	0.003402
895.2331	0.002790
895.4727	0.003634
895.7124	0.003570
895.9520	0.003275
896.1917	0.004540
896.4314	0.002769
896.6710	0.003844
896.9107	0.004203
897.1504	0.003507
897.3901	0.003570
897.6298	0.004372
897.8695	0.004140
898.1092	0.004393
898.3489	0.004350
898.5887	0.002664
898.8284	0.004835
899.0682	0.002875
899.3079	0.005194
899.5477	0.003359
899.7875	0.005046
900.0272	0.003823
900.2670	0.002453
900.5068	0.003022
900.7466	0.004646
900.9864	0.003381
901.2263	0.004709
901.4661	0.003612
901.7059	0.005426
901.9458	0.004161
902.1856	0.003950
902.4255	0.003444
902.6654	0.003338
902.9052	0.002242
903.1451	0.004161
903.3850	0.003233
903.6249	0.003612
903.8648	0.004034
904.1047	0.005552
904.3446	0.004646
904.5846	0.003929
904.8245	0.004076
905.0644	0.003781
905.3044	0.002474
905.5444	0.005299
905.7843	0.005510
906.0243	0.004456
906.2643	0.003887
906.5043	0.004983
906.7443	0.004456
906.9843	0.004920
907.2243	0.003634
907.4643	0.004835
907.7043	0.002769
907.9444	0.003929
908.1844	0.003634
908.4245	0.004076
908.6645	0.002516
908.9046	0.003381
909.1447	0.004013
909.3847	0.002727
909.6248	0.003971
909.8649	0.003781
910.1050	0.003233
910.3452	0.003507
910.5853	0.002537
910.8254	0.003128
911.0655	0.001841
911.3057	0.002769
911.5458	0.002453
911.7860	0.004308
912.0262	0.004393
912.2663	0.003465
912.5065	0.003296
912.7467	0.004097
912.9869	0.003950
913.2271	0.002390
913.4673	0.003128
913.7075	0.003444
913.9478	0.003549
914.1880	0.003486
914.4283	0.003739
914.6685	0.001420
914.9088	0.002031
915.1490	0.002432
915.3893	0.002137
915.6296	0.003655
915.8699	0.002052
916.1102	0.002432
916.3505	0.003591
916.5908	0.003212
916.8311	0.003612
917.0714	0.003781
917.3118	0.003423
917.5521	0.003128
917.7925	0.003212
918.0328	0.003001
918.2732	0.004203
918.5136	0.003971
918.7539	0.003317
918.9943	0.002558
919.2347	0.003718
919.4751	0.002727
919.7155	0.003781
919.9560	0.003992
920.1964	0.002896
920.4368	0.003402
920.6773	0.002980
920.9177	0.003043
921.1582	0.001715
921.3986	0.002685
921.6391	0.002896
921.8796	0.003170
922.1201	0.002073
922.3606	0.002558
922.6011	0.003338
922.8416	0.003570
923.0821	0.000302
923.3226	0.003106
923.5631	0.003549
923.8037	0.002158
924.0442	0.001884
924.2848	0.003950
924.5254	0.002643
924.7659	0.002200
925.0065	0.002432
925.2471	0.003570
925.4877	0.002853
925.7283	0.002579
925.9689	0.001504
926.2095	0.002558
926.4501	0.002938
926.6908	0.002621
926.9314	0.001420
927.1720	0.003043
927.4127	0.002621
927.6533	0.001209
927.8940	0.001103
928.1347	0.001757
928.3754	0.002853
928.6161	0.001947
928.8568	0.002052
929.0975	0.002411
929.3382	0.002326
929.5789	0.002031
929.8196	0.002115
930.0604	0.000850
930.3011	0.000534
930.5419	0.003064
930.7826	0.000977
931.0234	0.000323
931.2642	0.001230
931.5049	0.000893
931.7457	0.002537
931.9865	0.002516
932.2273	0.001061
932.4681	0.001736
932.7089	0.002516
932.9498	0.003697
933.1906	0.001694
933.4314	0.002875
933.6723	0.002664
933.9131	0.001546
934.1540	0.001504
934.3949	0.002432
934.6358	0.003212
934.8766	0.002896
935.1175	0.002305
935.3584	0.001694
935.5993	0.002790
935.8403	0.002284
936.0812	0.002453
936.3221	0.001546
936.5630	0.000576
936.8040	0.001778
937.0449	0.002010
937.2859	0.001420
937.5269	0.000956
937.7678	0.002263
938.0088	0.001884
938.2498	0.001103
938.4908	0.002347
938.7318	0.000829
938.9728	0.002579
939.2138	0.000492
939.4549	0.001841
939.6959	0.001736
939.9369	0.002980
940.1780	0.000534
940.4190	0.001841
940.6601	0.001209
940.9012	0.002221
941.1422	0.000555
941.3833	0.001884
941.6244	0.001061
941.8655	0.001757
942.1066	0.002094
942.3477	0.001588
942.5889	0.001378
942.8300	-0.000098
943.0711	0.002221
943.3123	0.001356
943.5534	0.000766
943.7946	0.001188
944.0357	0.000893
944.2769	0.002558
944.5181	0.000850
944.7593	0.000682
945.0005	0.002179
945.2417	0.002390
945.4829	-0.000162
945.7241	0.001378
945.9653	0.001251
946.2066	0.003170
946.4478	0.000408
946.6891	0.002347
946.9303	0.001989
947.1716	0.002073
947.4128	0.001399
947.6541	0.001588
947.8954	0.000281
948.1367	0.002432
948.3780	0.000197
948.6193	0.000323
948.8606	0.000597
949.1019	0.000808
949.3433	0.001799
949.5846	0.000618
949.8259	0.000703
950.0673	0.000534
950.3086	0.001019
950.5500	0.001862
950.7914	0.000871
951.0327	0.001609
951.2741	0.001293
951.5155	0.002896
951.7569	0.001757
951.9983	0.001504
952.2398	0.001968
952.4812	0.001251
952.7226	0.001103
952.9640	0.002558
953.2055	0.002010
953.4469	0.001209
953.6884	0.001061
953.9299	0.001947
954.1713	0.001335
954.4128	0.002010
954.6543	0.001862
954.8958	0.001968
955.1373	0.000408
955.3788	0.001926
955.6203	0.000745
955.8618	0.002094
956.1034	0.001399
956.3449	0.002263
956.5865	0.000998
956.8280	0.001146
957.0696	-0.000499
957.3111	0.000281
957.5527	0.000661
957.7943	0.001378
958.0359	0.002347
958.2775	0.002010
958.5191	0.001799
958.7607	0.002200
959.0023	0.002137
959.2439	0.000429
959.4856	0.000914
959.7272	0.001146
959.9688	0.001420
960.2105	0.000534
960.4522	0.001293
960.6938	0.001335
960.9355	0.001125
961.1772	0.000893
961.4189	0.001082
961.6606	0.001441
961.9023	0.001631
962.1440	0.000724
962.3857	0.001757
962.6274	0.001209
962.8692	0.000112
963.1109	0.001188
963.3527	-0.000162
963.5944	0.000640
963.8362	0.001335
964.0779	0.002031
964.3197	-0.000731
964.5615	0.000323
964.8033	0.001420
965.0451	0.001167
965.2869	0.000450
965.5287	0.000365
965.7705	0.000935
966.0123	0.001230
966.2542	0.001040
966.4960	0.002221
966.7379	0.000576
966.9797	0.002347
967.2216	0.001378
967.4634	0.000661
967.7053	0.000850
967.9472	0.001335
968.1891	-0.000056
968.4310	0.001188
968.6729	0.001272
968.9148	0.001841
969.1567	0.001567
969.3987	0.000703
969.6406	0.000682
969.8825	0.001926
970.1245	0.000344
970.3664	0.001546
970.6084	0.000998
970.8504	0.000197
971.0923	-0.000836
971.3343	0.000808
971.5763	0.000703
971.8183	0.000893
972.0603	-0.000246
972.3023	0.000998
972.5443	0.001715
972.7864	0.000977
973.0284	0.000661
973.2704	0.001209
973.5125	0.000534
973.7545	-0.000309
973.9966	0.001272
974.2387	0.001884
974.4807	0.000893
974.7228	0.001504
974.9649	0.001378
975.2070	0.001230
975.4491	0.001483
975.6912	0.001504
975.9333	0.000176
976.1755	0.000787
976.4176	0.000998
976.6597	0.001525
976.9019	0.000218
977.1440	0.001462
977.3862	0.001694
977.6283	0.001841
977.8705	0.001125
978.1127	-0.001385
978.3549	0.001272
978.5971	0.000956
978.8393	-0.000710
979.0815	0.001146
979.3237	0.000028
979.5659	0.000745
979.8082	0.000112
980.0504	0.001567
980.2926	-0.000035
980.5349	0.002179
980.7771	0.000408
981.0194	0.000450
981.2617	0.000028
981.5040	0.001061
981.7462	0.001378
981.9885	-0.000436
982.2308	0.000176
982.4731	0.000661
982.7155	0.000935
982.9578	0.001567
983.2001	0.001504
983.4424	0.000640
983.6848	0.000703
983.9271	0.001968
984.1695	0.000260
984.4118	0.000492
984.6542	0.000070
984.8966	0.001188
985.1390	-0.000372
985.3814	0.001125
985.6238	0.000745
985.8662	0.001167
986.1086	0.000745
986.3510	0.001694
986.5934	0.000871
986.8358	0.000829
987.0783	0.000998
987.3207	0.000555
987.5632	0.000534
987.8056	0.000555
988.0481	0.000323
988.2906	0.001356
988.5331	-0.001110
988.7756	0.001019
989.0180	0.000682
989.2605	-0.000119
989.5031	0.000281
989.7456	0.000070
989.9881	-0.000119
990.2306	0.001146
990.4732	0.000597
990.7157	0.000513
990.9582	-0.000014
991.2008	0.001335
991.4434	0.000724
991.6859	-0.001089
991.9285	0.001103
992.1711	-0.000119
992.4137	0.001947
992.6563	0.000682
992.8989	-0.000836
993.1415	0.001188
993.3841	0.000365
993.6267	0.001504
993.8694	0.000682
994.1120	0.001926
994.3547	0.000450
994.5973	-0.000436
994.8400	0.001019
995.0826	0.000471
995.3253	0.000977
995.5680	0.001546
995.8107	-0.000162
996.0534	0.002896
996.2961	0.001631
996.5388	0.000871
996.7815	0.000155
997.0242	0.000260
997.2670	-0.000204
997.5097	0.002010
997.7524	0.000091
997.9952	0.000112
998.2379	0.000344
998.4807	0.000408
998.7235	0.000197
998.9662	0.000977
999.2090	-0.000077
999.4518	0.001335
999.6946	0.000176
999.9374	-0.000288
1000.1802	0.000745
1000.4230	0.000956
1000.6659	-0.000098
1000.9087	0.000956
1001.1515	0.001483
1001.3944	-0.000394
1001.6372	0.001757
1001.8801	0.000176
1002.1230	0.000408
1002.3658	-0.000288
1002.6087	0.001715
1002.8516	0.000998
1003.0945	0.001588
1003.3374	-0.000246
1003.5803	0.000724
1003.8232	0.000007
1004.0661	-0.000056
1004.3091	0.000829
1004.5520	-0.000478
1004.7949	0.001019
1005.0379	-0.000921
1005.2808	-0.001595
1005.5238	-0.000077
1005.7667	0.001314
1006.0097	0.000365
1006.2527	0.001082
1006.4957	0.000914
1006.7387	0.000323
1006.9817	0.002052
1007.2247	0.000682
1007.4677	0.000028
1007.7107	0.001483
1007.9538	0.000935
1008.1968	0.001335
1008.4398	0.000365
1008.6829	0.000408
1008.9259	0.000197
1009.1690	-0.000752
1009.4121	0.001188
1009.6551	0.000998
1009.8982	0.001251
1010.1413	-0.000921
1010.3844	0.001588
1010.6275	0.000956
1010.8706	0.001335
1011.1137	0.000745
1011.3568	0.001146
1011.6000	-0.001469
1011.8431	0.002664
1012.0863	-0.000246
1012.3294	-0.001279
1012.5726	-0.000183
1012.8157	0.001989
1013.0589	0.000049
1013.3021	0.001335
1013.5452	-0.001848
1013.7884	-0.000077
1014.0316	-0.000562
1014.2748	0.001631
1014.5180	0.000871
1014.7613	0.001251
1015.0045	0.001314
1015.2477	0.000450
1015.4909	-0.000330
1015.7342	0.000914
1015.9774	0.000998
1016.2207	0.000365
1016.4640	0.001188
1016.7072	0.001293
1016.9505	0.000408
1017.1938	0.001146
1017.4371	-0.001068
1017.6804	0.001040
1017.9237	0.000302
1018.1670	0.000429
1018.4103	-0.000056
1018.6536	0.000408
1018.8969	0.000682
1019.1403	0.000703
1019.3836	0.000829
1019.6270	0.000155
1019.8703	0.000450
1020.1137	0.001652
1020.3571	0.000387
1020.6004	-0.000351
1020.8438	-0.000098
1021.0872	0.000323
1021.3306	-0.000394
1021.5740	0.000323
1021.8174	-0.000162
1022.0608	0.000155
1022.3042	0.000028
1022.5477	0.000429
1022.7911	-0.000879
1023.0345	0.000618
