# Wavelength (nm)	Intensity (a.u.)
197.7802	0.000427
197.9842	-0.000314
198.1882	0.000342
198.3922	0.000384
198.5963	-0.000208
198.8003	0.000130
199.0044	0.002373
199.2085	0.000046
199.4126	0.000427
199.6168	-0.000420
199.8209	0.000596
200.0251	-0.000250
200.2292	-0.001244
200.4334	-0.000462
200.6376	0.000384
200.8418	-0.001118
201.0461	-0.000229
201.2503	-0.001181
201.4546	0.001421
201.6589	0.000765
201.8631	0.001907
202.0674	-0.000504
202.2718	0.001484
202.4761	-0.000610
202.6805	0.002119
202.8848	-0.000779
203.0892	0.000765
203.2936	0.001167
203.4980	-0.001900
203.7024	0.000575
203.9069	0.001823
204.1113	0.000448
204.3158	-0.000187
204.5203	-0.000398
204.7248	-0.000356
204.9293	-0.001181
205.1338	0.002013
205.3384	-0.000652
205.5430	-0.000314
205.7475	-0.000187
205.9521	0.000088
206.1567	0.000278
206.3614	0.000278
206.5660	0.000257
206.7706	0.002161
206.9753	0.000363
207.1800	0.000130
207.3847	-0.000039
207.5894	0.000321
207.7941	0.000955
207.9989	0.000490
208.2036	-0.000250
208.4084	0.000427
208.6132	0.000765
208.8180	0.001548
209.0228	0.000405
209.2276	0.000363
209.4325	0.000384
209.6373	0.000596
209.8422	-0.000864
210.0471	0.000004
210.2520	-0.000250
210.4569	0.000046
210.6618	-0.000589
210.8668	-0.000145
211.0718	-0.001414
211.2767	0.002922
211.4817	0.000152
211.6867	-0.000441
211.8918	-0.000060
212.0968	0.002288
212.3018	0.000934
212.5069	0.001801
212.7120	0.000427
212.9171	-0.000991
213.1222	-0.000843
213.3273	0.001484
213.5325	0.001590
213.7376	-0.000462
213.9428	-0.001244
214.1480	-0.001308
214.3532	0.000088
214.5584	0.001378
214.7636	-0.000123
214.9689	-0.000927
215.1741	-0.000673
215.3794	0.000215
215.5847	-0.000293
215.7900	-0.001308
215.9953	-0.000589
216.2007	0.000511
216.4060	-0.000060
216.6114	0.000828
216.8168	0.000765
217.0222	-0.001816
217.2276	-0.000568
217.4330	0.000659
217.6384	0.000702
217.8439	0.001463
218.0494	0.000300
218.2548	0.002944
218.4603	0.000109
218.6659	0.001696
218.8714	0.000871
219.0769	0.000130
219.2825	-0.000843
219.4881	0.000532
219.6936	-0.000991
219.8992	0.001103
220.1049	-0.000694
220.3105	0.000469
220.5161	-0.000420
220.7218	-0.000166
220.9275	-0.000356
221.1332	0.000955
221.3389	-0.000208
221.5446	-0.000441
221.7503	-0.001244
221.9561	0.001548
222.1618	-0.000208
222.3676	0.000088
222.5734	-0.000081
222.7792	0.000702
222.9850	0.000977
223.1909	-0.000462
223.3967	0.000807
223.6026	0.002224
223.8085	0.000680
224.0144	0.000067
224.2203	0.000194
224.4262	-0.000948
224.6322	-0.001435
224.8381	-0.002069
225.0441	-0.000546
225.2501	0.000215
225.4561	0.000342
225.6621	0.001357
225.8681	-0.002260
226.0742	-0.000377
226.2802	-0.001414
226.4863	0.000448
226.6924	0.000300
226.8985	0.001125
227.1046	-0.002006
227.3107	-0.000314
227.5169	-0.000081
227.7230	0.000025
227.9292	-0.000145
228.1354	0.000807
228.3416	-0.000187
228.5478	0.001611
228.7541	0.000278
228.9603	0.001082
229.1666	-0.000652
229.3729	-0.001054
229.5791	-0.000652
229.7855	-0.001350
229.9918	0.000278
230.1981	-0.000398
230.4045	0.000257
230.6108	0.000046
230.8172	0.000955
231.0236	0.000384
231.2300	-0.001477
231.4364	-0.001414
231.6429	0.000152
231.8493	0.001125
232.0558	-0.001139
232.2623	-0.000271
232.4688	0.000575
232.6753	-0.000123
232.8818	0.000278
233.0884	0.001696
233.2949	-0.000335
233.5015	0.000152
233.7081	0.000532
233.9147	0.000173
234.1213	-0.000166
234.3279	-0.000293
234.5346	-0.000504
234.7413	0.002351
234.9479	-0.000652
235.1546	0.000553
235.3613	0.002288
235.5680	0.000723
235.7748	0.000765
235.9815	-0.000187
236.1883	0.000215
236.3951	0.001886
236.6018	0.000680
236.8087	0.002224
237.0155	-0.000123
237.2223	-0.001942
237.4292	0.000088
237.6360	0.001992
237.8429	0.000046
238.0498	0.001378
238.2567	0.000490
238.4636	-0.000250
238.6706	-0.001414
238.8775	0.001188
239.0845	-0.000927
239.2915	0.002076
239.4985	-0.000462
239.7055	0.001315
239.9125	-0.000229
240.1195	0.000088
240.3266	0.000321
240.5337	0.000257
240.7407	0.000004
240.9478	-0.000843
241.1549	-0.002048
241.3621	0.001526
241.5692	-0.000123
241.7764	0.000448
241.9835	-0.000737
242.1907	0.001357
242.3979	-0.000716
242.6051	0.000807
242.8124	0.000680
243.0196	-0.000568
243.2269	-0.000187
243.4341	0.000363
243.6414	-0.001392
243.8487	0.001167
244.0560	-0.000546
244.2634	0.001865
244.4707	-0.001012
244.6781	0.000553
244.8854	-0.002387
245.0928	0.000384
245.3002	-0.001181
245.5076	0.000723
245.7151	-0.000673
245.9225	-0.000504
246.1300	0.000638
246.3375	-0.000927
246.5449	-0.001202
246.7524	0.000363
246.9600	0.000130
247.1675	0.000596
247.3750	-0.000694
247.5826	0.001442
247.7902	-0.001160
247.9978	0.000617
248.2054	-0.000314
248.4130	-0.000039
248.6206	0.000638
248.8283	-0.000969
249.0359	0.001251
249.2436	0.000617
249.4513	-0.001139
249.6590	0.000553
249.8667	0.000977
250.0745	0.000913
250.2822	0.000194
250.4900	-0.002281
250.6978	-0.001498
250.9056	-0.000123
251.1134	0.000363
251.3212	0.002901
251.5290	0.000173
251.7369	0.001209
251.9447	-0.000864
252.1526	-0.000314
252.3605	0.001357
252.5684	0.000004
252.7763	0.000723
252.9843	0.001886
253.1922	0.000511
253.4002	0.000850
253.6082	-0.000546
253.8162	-0.000293
254.0242	-0.000187
254.2322	0.001611
254.4402	-0.001244
254.6483	0.000807
254.8564	-0.000314
255.0644	0.000913
255.2725	-0.000229
255.4806	-0.000208
255.6888	0.000532
255.8969	0.003409
256.1051	-0.000356
256.3132	-0.000398
256.5214	0.001463
256.7296	0.000067
256.9378	0.000194
257.1460	0.001484
257.3543	-0.001350
257.5625	0.000532
257.7708	-0.000039
257.9791	-0.001773
258.1874	-0.000589
258.3957	0.000786
258.6040	-0.000166
258.8124	0.001611
259.0207	0.000977
259.2291	-0.000123
259.4375	-0.000737
259.6459	0.000152
259.8543	-0.001096
260.0627	0.000448
260.2711	-0.000631
260.4796	0.001421
260.6881	0.000786
260.8965	-0.000589
261.1050	0.000955
261.3135	0.000342
261.5221	-0.000229
261.7306	0.000490
261.9392	0.000342
262.1477	-0.000102
262.3563	0.000871
262.5649	-0.000589
262.7735	0.000342
262.9822	0.000257
263.1908	-0.000589
263.3995	0.001928
263.6081	-0.002471
263.8168	-0.000694
264.0255	0.000892
264.2342	-0.000420
264.4429	0.000025
264.6517	0.001738
264.8604	0.000765
265.0692	-0.000504
265.2780	-0.001435
265.4868	-0.000377
265.6956	-0.000800
265.9044	0.002732
266.1133	-0.002027
266.3221	0.001484
266.5310	-0.001392
266.7399	0.000130
266.9488	0.000977
267.1577	-0.000123
267.3666	-0.001731
267.5755	0.000511
267.7845	0.000215
267.9935	0.000257
268.2024	0.001019
268.4114	-0.001096
268.6205	-0.000060
268.8295	-0.001075
269.0385	0.000321
269.2476	0.001061
269.4566	0.000659
269.6657	0.001336
269.8748	-0.001012
270.0839	0.001569
270.2931	-0.000377
270.5022	0.000067
270.7114	0.000744
270.9205	0.000088
271.1297	-0.001837
271.3389	0.000405
271.5481	0.000025
271.7573	0.001294
271.9666	-0.001710
272.1758	-0.000039
272.3851	0.000553
272.5944	-0.001160
272.8037	-0.000314
273.0130	-0.000504
273.2223	0.000828
273.4316	-0.000546
273.6410	-0.000991
273.8504	0.000638
274.0597	0.000046
274.2691	-0.000187
274.4785	-0.000969
274.6880	-0.000589
274.8974	0.000004
275.1069	0.001230
275.3163	-0.000187
275.5258	0.001400
275.7353	-0.000546
275.9448	0.001188
276.1543	0.000955
276.3639	0.000046
276.5734	0.000278
276.7830	0.000532
276.9926	-0.000018
277.2022	0.000786
277.4118	-0.000314
277.6214	-0.002154
277.8310	-0.000758
278.0407	0.001146
278.2503	0.000723
278.4600	-0.000504
278.6697	0.000427
278.8794	0.001040
279.0891	0.000130
279.2989	-0.000969
279.5086	-0.001498
279.7184	0.000152
279.9281	0.001188
280.1379	0.001400
280.3477	-0.000864
280.5576	-0.000377
280.7674	-0.000187
280.9772	0.000257
281.1871	-0.000885
281.3970	-0.000356
281.6069	0.001125
281.8168	0.000511
282.0267	0.000257
282.2366	-0.001012
282.4466	0.000680
282.6565	-0.000377
282.8665	0.000300
283.0765	0.001019
283.2865	0.001209
283.4965	-0.000948
283.7065	-0.000271
283.9166	-0.000525
284.1266	-0.001075
284.3367	-0.000525
284.5468	-0.000356
284.7569	-0.000483
284.9670	0.000025
285.1771	0.002140
285.3873	0.000553
285.5974	0.000469
285.8076	0.001653
286.0178	0.000257
286.2280	0.000257
286.4382	0.001949
286.6484	0.000955
286.8587	0.001992
287.0689	0.000342
287.2792	0.001146
287.4895	-0.000504
287.6998	0.000659
287.9101	0.000046
288.1204	0.001801
288.3308	-0.001435
288.5411	0.001294
288.7515	0.001442
288.9619	-0.000779
289.1723	0.000363
289.3827	-0.000166
289.5931	0.000130
289.8035	-0.001054
290.0140	-0.000800
290.2245	0.001886
290.4349	0.000025
290.6454	0.000025
290.8559	-0.001096
291.0665	0.001801
291.2770	-0.000166
291.4875	0.000194
291.6981	0.000977
291.9087	-0.000758
292.1193	-0.000991
292.3299	-0.000800
292.5405	-0.000843
292.7511	-0.000483
292.9618	0.000553
293.1724	-0.000187
293.3831	0.000088
293.5938	-0.000208
293.8045	0.000004
294.0152	-0.000716
294.2260	-0.001160
294.4367	-0.001667
294.6475	-0.001964
294.8582	-0.000398
295.0690	-0.000610
295.2798	-0.000039
295.4906	0.000596
295.7015	0.000300
295.9123	0.000215
296.1232	0.000617
296.3340	0.001357
296.5449	0.000215
296.7558	0.000004
296.9667	-0.000694
297.1777	-0.001646
297.3886	-0.000145
297.5995	-0.000123
297.8105	0.002161
298.0215	0.001442
298.2325	-0.000673
298.4435	0.000765
298.6545	0.000807
298.8656	-0.001435
299.0766	-0.000081
299.2877	-0.001223
299.4988	-0.000927
299.7099	-0.000737
299.9210	0.000723
300.1321	0.002563
300.3432	0.000871
300.5544	0.000659
300.7655	0.001103
300.9767	0.000659
301.1879	-0.000335
301.3991	-0.000821
301.6103	-0.000652
301.8215	-0.000652
302.0328	0.001442
302.2441	-0.000018
302.4553	0.000955
302.6666	0.000786
302.8779	0.000046
303.0892	-0.000314
303.3006	0.000511
303.5119	0.000025
303.7233	0.001125
303.9346	0.001061
304.1460	-0.000335
304.3574	-0.000208
304.5688	0.000617
304.7803	-0.000864
304.9917	0.000998
305.2031	-0.001583
305.4146	-0.000123
305.6261	0.001315
305.8376	0.000807
306.0491	0.000257
306.2606	0.000977
306.4722	0.000130
306.6837	0.000807
306.8953	-0.000145
307.1069	0.000532
307.3184	-0.001350
307.5301	0.000553
307.7417	-0.000610
307.9533	-0.000145
308.1650	-0.000969
308.3766	0.001357
308.5883	-0.000060
308.8000	0.001209
309.0117	0.001019
309.2234	0.000025
309.4351	-0.000991
309.6469	0.001442
309.8586	-0.001689
310.0704	0.000152
310.2822	-0.000166
310.4940	0.002076
310.7058	-0.000314
310.9176	-0.000398
311.1295	-0.000039
311.3413	-0.000123
311.5532	-0.001118
311.7651	0.000744
311.9770	-0.000356
312.1889	0.001146
312.4008	-0.000589
312.6127	-0.001118
312.8247	0.000025
313.0366	0.000448
313.2486	-0.000568
313.4606	0.001780
313.6726	0.000427
313.8846	-0.002281
314.0967	0.000363
314.3087	0.000025
314.5208	0.001061
314.7328	0.001273
314.9449	-0.002196
315.1570	-0.000250
315.3692	0.001569
315.5813	-0.000377
315.7934	0.001442
316.0056	-0.000800
316.2177	-0.000546
316.4299	0.000934
316.6421	-0.000652
316.8543	0.000702
317.0666	-0.000377
317.2788	0.000004
317.4911	-0.000589
317.7033	-0.001414
317.9156	0.000384
318.1279	-0.000652
318.3402	-0.000483
318.5525	-0.000991
318.7649	-0.001816
318.9772	-0.000187
319.1896	0.000173
319.4019	-0.000039
319.6143	-0.000779
319.8267	-0.000166
320.0392	-0.000060
320.2516	-0.000250
320.4640	0.000173
320.6765	-0.001202
320.8890	-0.001456
321.1014	-0.001773
321.3139	-0.000589
321.5265	0.001801
321.7390	0.000638
321.9515	0.000257
322.1641	-0.000948
322.3766	0.001082
322.5892	0.000871
322.8018	-0.001244
323.0144	-0.000102
323.2270	-0.000166
323.4397	-0.001350
323.6523	-0.000568
323.8650	0.001209
324.0777	0.000109
324.2904	0.001188
324.5031	0.000152
324.7158	-0.000102
324.9285	0.000638
325.1412	0.000977
325.3540	0.000786
325.5668	-0.000250
325.7796	0.001125
325.9924	-0.000821
326.2052	0.000152
326.4180	-0.000546
326.6308	0.001082
326.8437	-0.002365
327.0566	-0.001456
327.2694	-0.000398
327.4823	-0.000948
327.6952	-0.000589
327.9082	0.000109
328.1211	-0.000906
328.3340	-0.001477
328.5470	0.002330
328.7600	-0.000271
328.9730	-0.001202
329.1860	-0.000906
329.3990	-0.000462
329.6120	0.001082
329.8251	-0.000441
330.0381	0.001844
330.2512	-0.000589
330.4643	0.000850
330.6774	-0.000081
330.8905	-0.000081
331.1036	-0.000123
331.3167	0.000998
331.5299	0.000913
331.7431	-0.001837
331.9562	-0.000991
332.1694	0.001442
332.3826	-0.001392
332.5959	0.000321
332.8091	0.000405
333.0223	0.000363
333.2356	-0.000229
333.4489	-0.000377
333.6622	-0.000610
333.8755	0.000236
334.0888	0.000215
334.3021	0.000786
334.5154	0.001378
334.7288	0.000955
334.9422	0.000025
335.1555	-0.000991
335.3689	0.000046
335.5823	0.000448
335.7958	-0.000737
336.0092	-0.000335
336.2227	-0.000610
336.4361	-0.000927
336.6496	-0.000145
336.8631	0.000723
337.0766	-0.000673
337.2901	0.001082
337.5036	0.000702
337.7172	0.001378
337.9307	-0.000589
338.1443	0.000025
338.3579	-0.000229
338.5715	0.001463
338.7851	-0.000779
338.9987	0.000025
339.2124	-0.000229
339.4260	-0.000758
339.6397	-0.000441
339.8533	-0.000631
340.0670	-0.000716
340.2807	0.000680
340.4945	0.000278
340.7082	0.000004
340.9219	0.000004
341.1357	0.000067
341.3495	-0.001223
341.5633	0.000807
341.7771	0.000469
341.9909	0.001886
342.2047	-0.000864
342.4185	0.000765
342.6324	-0.000018
342.8463	0.000173
343.0601	0.001040
343.2740	0.001357
343.4879	0.001167
343.7019	0.000300
343.9158	0.000342
344.1297	0.000363
344.3437	-0.001181
344.5577	0.000278
344.7717	-0.000293
344.9857	0.001992
345.1997	-0.000293
345.4137	0.002034
345.6277	0.000363
345.8418	0.000321
346.0559	0.000723
346.2699	-0.000102
346.4840	-0.001012
346.6981	-0.000843
346.9123	-0.000314
347.1264	0.000617
347.3406	-0.000991
347.5547	0.001569
347.7689	0.000490
347.9831	0.000702
348.1973	-0.000102
348.4115	-0.000441
348.6257	-0.001689
348.8400	0.000257
349.0542	-0.000420
349.2685	0.000490
349.4828	0.001526
349.6971	0.000342
349.9114	-0.000504
350.1257	0.001273
350.3400	0.002119
350.5544	0.001590
350.7687	-0.000758
350.9831	0.000617
351.1975	0.002309
351.4119	0.001146
351.6263	0.000088
351.8407	0.000553
352.0552	0.000342
352.2696	0.000723
352.4841	0.000342
352.6986	-0.001202
352.9131	0.000130
353.1276	-0.000271
353.3421	-0.001244
353.5566	0.000300
353.7712	-0.000250
353.9858	0.000596
354.2003	0.001378
354.4149	-0.000377
354.6295	-0.000229
354.8441	0.000744
355.0588	0.000130
355.2734	0.001357
355.4881	0.001569
355.7027	0.001590
355.9174	0.000427
356.1321	-0.001033
356.3468	0.000257
356.5615	0.001251
356.7763	0.000088
356.9910	0.000427
357.2058	-0.001435
357.4206	0.000977
357.6353	-0.001054
357.8501	0.001548
358.0650	-0.000208
358.2798	0.000913
358.4946	0.000977
358.7095	-0.000039
358.9243	0.000596
359.1392	0.000321
359.3541	-0.001350
359.5690	-0.000525
359.7839	-0.000208
359.9989	0.000173
360.2138	-0.000229
360.4288	0.000278
360.6438	-0.000060
360.8587	0.000257
361.0737	-0.000885
361.2888	0.000680
361.5038	0.001611
361.7188	-0.000018
361.9339	-0.000123
362.1489	-0.000123
362.3640	0.001061
362.5791	0.001971
362.7942	-0.000927
363.0093	-0.000843
363.2245	0.000617
363.4396	-0.001033
363.6548	-0.000229
363.8699	0.000532
364.0851	-0.000589
364.3003	0.001611
364.5155	-0.000589
364.7308	0.000828
364.9460	-0.000208
365.1612	-0.000969
365.3765	-0.000208
365.5918	-0.000441
365.8071	-0.000102
366.0224	0.001061
366.2377	-0.000229
366.4530	-0.000631
366.6684	0.001548
366.8837	-0.000018
367.0991	0.000596
367.3145	0.001061
367.5299	-0.000589
367.7453	-0.001181
367.9607	-0.000525
368.1761	-0.000102
368.3916	0.000596
368.6070	0.001103
368.8225	-0.000462
369.0380	-0.000673
369.2535	0.000427
369.4690	-0.000398
369.6845	0.000427
369.9001	0.001611
370.1156	-0.000758
370.3312	0.000744
370.5468	-0.001414
370.7624	-0.000800
370.9780	-0.000568
371.1936	0.000553
371.4092	0.000998
371.6249	0.000405
371.8405	-0.000525
372.0562	-0.000377
372.2719	-0.000864
372.4876	0.001251
372.7033	-0.000060
372.9190	0.001759
373.1348	-0.000779
373.3505	0.000659
373.5663	-0.001160
373.7820	0.000871
373.9978	-0.001435
374.2136	0.000702
374.4294	-0.001012
374.6453	-0.000420
374.8611	-0.000208
375.0770	0.001442
375.2928	-0.000610
375.5087	-0.000293
375.7246	0.000004
375.9405	-0.000800
376.1564	0.001949
376.3724	0.000871
376.5883	-0.002302
376.8043	-0.001773
377.0203	0.000363
377.2362	-0.002598
377.4522	0.001632
377.6682	-0.001308
377.8843	0.001759
378.1003	0.000448
378.3164	-0.000335
378.5324	0.000109
378.7485	0.000850
378.9646	0.000617
379.1807	0.000617
379.3968	0.000786
379.6129	-0.000145
379.8291	0.000004
380.0452	-0.000420
380.2614	0.001717
380.4776	-0.000525
380.6938	0.000913
380.9100	0.000130
381.1262	-0.000420
381.3424	0.001061
381.5587	0.000194
381.7749	0.000342
381.9912	0.000278
382.2075	0.000130
382.4238	0.000278
382.6401	-0.001139
382.8564	-0.000885
383.0728	-0.000737
383.2891	-0.000589
383.5055	-0.000145
383.7219	-0.000716
383.9382	-0.001033
384.1546	0.000278
384.3711	-0.000293
384.5875	-0.000843
384.8039	0.000955
385.0204	-0.000694
385.2368	-0.000123
385.4533	0.001971
385.6698	0.000427
385.8863	0.000892
386.1028	-0.001837
386.3194	-0.000018
386.5359	-0.001160
386.7525	-0.000885
386.9690	-0.001054
387.1856	-0.000694
387.4022	-0.001921
387.6188	-0.000271
387.8355	-0.000271
388.0521	-0.000631
388.2687	0.001188
388.4854	-0.000673
388.7021	0.000215
388.9188	-0.000229
389.1355	0.000723
389.3522	-0.000377
389.5689	-0.002112
389.7856	-0.000060
390.0024	-0.000335
390.2192	0.000004
390.4359	-0.001012
390.6527	0.000130
390.8695	0.001823
391.0863	0.000342
391.3032	-0.001731
391.5200	-0.001139
391.7369	0.000934
391.9537	0.001251
392.1706	-0.000271
392.3875	-0.001096
392.6044	-0.002217
392.8213	0.000702
393.0383	-0.001646
393.2552	0.001019
393.4722	0.000490
393.6891	0.001230
393.9061	-0.000800
394.1231	0.000765
394.3401	-0.001435
394.5572	-0.001667
394.7742	0.001294
394.9912	-0.000420
395.2083	-0.001414
395.4254	-0.001075
395.6425	-0.000927
395.8596	0.000109
396.0767	0.000300
396.2938	-0.001371
396.5109	-0.000483
396.7281	0.000680
396.9453	-0.001646
397.1624	0.000977
397.3796	-0.000187
397.5968	0.000723
397.8140	-0.001139
398.0313	-0.001118
398.2485	0.000511
398.4658	0.000553
398.6830	-0.001223
398.9003	0.001188
399.1176	0.000448
399.3349	0.000659
399.5522	0.000194
399.7696	0.000257
399.9869	-0.000081
400.2043	-0.000187
400.4216	-0.002471
400.6390	0.001146
400.8564	-0.000356
401.0738	-0.001075
401.2912	-0.001752
401.5087	-0.000694
401.7261	-0.000039
401.9436	0.002034
402.1610	-0.002006
402.3785	0.000871
402.5960	-0.000271
402.8135	-0.000250
403.0310	-0.001921
403.2486	-0.000991
403.4661	-0.001033
403.6837	-0.000039
403.9013	0.000977
404.1189	0.000807
404.3365	-0.000335
404.5541	-0.001308
404.7717	-0.001202
404.9893	-0.001181
405.2070	-0.000420
405.4246	-0.000335
405.6423	0.000427
405.8600	0.000278
406.0777	-0.001858
406.2954	0.000511
406.5131	-0.000568
406.7309	-0.000250
406.9486	-0.000652
407.1664	-0.001054
407.3842	0.001188
407.6020	-0.001223
407.8198	0.000469
408.0376	-0.000039
408.2554	0.000850
408.4733	-0.000483
408.6911	-0.000208
408.9090	-0.000483
409.1269	0.001273
409.3448	0.000236
409.5627	0.000004
409.7806	-0.001414
409.9985	0.001717
410.2165	-0.000546
410.4344	0.000553
410.6524	-0.000462
410.8704	0.001230
411.0884	-0.001181
411.3064	0.000173
411.5244	-0.000864
411.7424	-0.000377
411.9605	-0.000864
412.1785	0.001167
412.3966	0.000257
412.6147	0.000532
412.8328	0.000765
413.0509	-0.000589
413.2690	0.000532
413.4871	-0.000610
413.7053	-0.001096
413.9234	0.000278
414.1416	0.000871
414.3598	-0.000462
414.5780	0.000257
414.7962	-0.000631
415.0144	-0.000948
415.2326	0.001865
415.4509	-0.000525
415.6692	0.000004
415.8874	-0.000102
416.1057	0.000363
416.3240	0.000532
416.5423	-0.000335
416.7606	-0.000229
416.9790	0.000532
417.1973	0.000469
417.4157	-0.000525
417.6341	0.000786
417.8524	0.000088
418.0708	-0.000504
418.2893	0.000300
418.5077	0.001357
418.7261	0.000342
418.9446	-0.000462
419.1630	0.000405
419.3815	0.001294
419.6000	-0.000293
419.8185	-0.001054
420.0370	0.000807
420.2555	-0.000250
420.4741	0.002436
420.6926	0.000384
420.9112	0.001188
421.1298	0.000025
421.3483	0.000236
421.5669	-0.001794
421.7856	-0.000885
422.0042	-0.000483
422.2228	-0.000694
422.4415	0.000194
422.6601	-0.000927
422.8788	-0.000991
423.0975	-0.000123
423.3162	-0.000250
423.5349	-0.000673
423.7536	0.000511
423.9724	-0.000843
424.1911	-0.000145
424.4099	0.002055
424.6287	0.000511
424.8475	0.000342
425.0663	-0.001266
425.2851	-0.001604
425.5039	0.006645
425.7228	0.001886
425.9416	0.000511
426.1605	0.001061
426.3793	0.000998
426.5982	0.000977
426.8171	0.000257
427.0361	-0.000758
427.2550	-0.000673
427.4739	0.001040
427.6929	-0.000568
427.9118	0.001484
428.1308	-0.000356
428.3498	-0.001308
428.5688	0.001294
428.7878	0.001484
429.0068	0.000490
429.2259	0.000257
429.4449	-0.001329
429.6640	0.000152
429.8831	-0.001498
430.1022	0.000173
430.3213	-0.000420
430.5404	0.001907
430.7595	-0.000208
430.9787	-0.000123
431.1978	-0.001414
431.4170	0.000448
431.6362	0.000490
431.8553	0.001167
432.0745	0.000723
432.2938	-0.000377
432.5130	-0.000568
432.7322	-0.000483
432.9515	0.000004
433.1707	-0.000187
433.3900	0.000575
433.6093	0.000448
433.8286	-0.000229
434.0479	0.001653
434.2673	0.001146
434.4866	0.001378
434.7059	0.000850
434.9253	-0.000800
435.1447	-0.001773
435.3641	-0.000377
435.5835	-0.001710
435.8029	0.002267
436.0223	-0.000504
436.2418	0.000638
436.4612	-0.000610
436.6807	0.001442
436.9001	-0.001266
437.1196	-0.000906
437.3391	0.000977
437.5586	-0.000398
437.7782	0.000702
437.9977	-0.000018
438.2173	-0.000314
438.4368	0.000004
438.6564	0.001188
438.8760	0.001632
439.0956	0.000173
439.3152	0.000786
439.5348	-0.000060
439.7545	0.000469
439.9741	0.000913
440.1938	0.000532
440.4135	-0.000441
440.6331	0.001886
440.8528	0.000278
441.0725	-0.000187
441.2923	-0.001266
441.5120	0.001632
441.7318	-0.000504
441.9515	0.000469
442.1713	-0.000293
442.3911	-0.000420
442.6109	-0.000462
442.8307	-0.001012
443.0505	-0.000716
443.2703	0.001061
443.4902	-0.001435
443.7101	0.000511
443.9299	-0.000504
444.1498	-0.001054
444.3697	0.000300
444.5896	0.001526
444.8095	0.001336
445.0295	0.000321
445.2494	-0.000377
445.4694	-0.000166
445.6894	-0.001139
445.9093	-0.000356
446.1293	-0.000166
446.3493	0.006116
446.5694	0.000257
446.7894	-0.000673
447.0094	-0.000991
447.2295	0.001040
447.4496	0.001569
447.6696	-0.000123
447.8897	-0.000864
448.1098	-0.000018
448.3300	0.000680
448.5501	0.000977
448.7702	0.000744
448.9904	-0.000673
449.2106	-0.001646
449.4307	0.000152
449.6509	0.000638
449.8711	-0.000694
450.0914	-0.000208
450.3116	0.001146
450.5318	-0.001794
450.7521	-0.000673
450.9724	0.000300
451.1926	-0.000779
451.4129	0.000236
451.6332	0.000617
451.8535	0.000511
452.0739	0.000173
452.2942	-0.000927
452.5146	0.000617
452.7349	-0.000081
452.9553	0.000786
453.1757	-0.001308
453.3961	-0.000335
453.6165	-0.000271
453.8369	0.000744
454.0574	0.000236
454.2778	0.000025
454.4983	-0.001371
454.7188	-0.000991
454.9393	-0.000927
455.1597	0.000596
455.3803	0.000257
455.6008	0.000850
455.8213	-0.000208
456.0419	-0.000885
456.2624	0.001061
456.4830	0.001738
456.7036	-0.000293
456.9242	-0.001139
457.1448	-0.000271
457.3654	0.000384
457.5860	0.001823
457.8067	0.001717
458.0274	0.000067
458.2480	0.000723
458.4687	-0.000081
458.6894	-0.000504
458.9101	-0.000631
459.1308	0.001484
459.3516	-0.001435
459.5723	0.000511
459.7931	0.000617
460.0138	0.000744
460.2346	0.001442
460.4554	0.000236
460.6762	-0.001287
460.8970	0.001251
461.1178	0.000236
461.3387	-0.001794
461.5595	-0.000039
461.7804	-0.000589
462.0013	0.000659
462.2222	-0.000631
462.4431	0.001463
462.6640	-0.000377
462.8849	0.001632
463.1059	-0.000356
463.3268	0.000088
463.5478	-0.001244
463.7687	0.000088
463.9897	-0.000145
464.2107	-0.001731
464.4317	-0.000885
464.6528	0.001505
464.8738	-0.000123
465.0948	-0.000102
465.3159	-0.000927
465.5370	0.001040
465.7581	0.000342
465.9792	0.000152
466.2003	-0.001350
466.4214	0.001907
466.6425	-0.000293
466.8637	-0.000314
467.0848	-0.001308
467.3060	0.000977
467.5272	-0.000652
467.7484	-0.001604
467.9696	-0.000610
468.1908	-0.000673
468.4120	-0.000039
468.6333	0.000596
468.8545	0.000490
469.0758	-0.000821
469.2970	-0.000483
469.5183	-0.000800
469.7396	-0.002027
469.9610	0.000680
470.1823	-0.000441
470.4036	0.001484
470.6250	0.000088
470.8463	-0.000208
471.0677	0.000173
471.2891	0.000046
471.5105	0.002457
471.7319	0.001611
471.9533	-0.000737
472.1748	-0.001329
472.3962	0.000744
472.6177	0.000765
472.8391	-0.002535
473.0606	-0.000166
473.2821	0.000553
473.5036	0.000194
473.7251	-0.000060
473.9467	0.000532
474.1682	-0.000589
474.3898	0.000850
474.6113	-0.001667
474.8329	-0.000377
475.0545	0.000532
475.2761	-0.001773
475.4977	-0.000758
475.7193	0.000617
475.9410	-0.001519
476.1626	0.000659
476.3843	0.000532
476.6060	0.000744
476.8277	0.000511
477.0494	-0.000864
477.2711	0.004890
477.4928	-0.000102
477.7145	-0.000441
477.9363	0.000553
478.1580	-0.000610
478.3798	-0.000145
478.6016	0.000553
478.8234	-0.000293
479.0452	-0.001308
479.2670	-0.001244
479.4888	-0.000441
479.7107	0.001971
479.9325	-0.000462
480.1544	0.002203
480.3763	-0.000821
480.5982	-0.000631
480.8201	0.002584
481.0420	0.000553
481.2639	-0.000081
481.4859	-0.001181
481.7078	0.000427
481.9298	0.001019
482.1517	-0.000589
482.3737	0.001019
482.5957	-0.000229
482.8177	-0.000398
483.0398	0.000680
483.2618	-0.000123
483.4838	-0.001308
483.7059	0.000363
483.9280	0.000088
484.1501	-0.001033
484.3721	0.000046
484.5943	-0.000123
484.8164	-0.000335
485.0385	0.001463
485.2606	-0.000589
485.4828	0.000596
485.7050	0.000511
485.9271	-0.001139
486.1493	-0.000166
486.3715	-0.000018
486.5937	0.000067
486.8160	-0.001562
487.0382	-0.000462
487.2605	0.001188
487.4827	0.000236
487.7050	0.001696
487.9273	0.000025
488.1496	0.000553
488.3719	-0.001435
488.5942	-0.000610
488.8165	0.000384
489.0389	-0.000398
489.2612	-0.000060
489.4836	0.000321
489.7060	-0.001879
489.9284	-0.000568
490.1508	-0.000504
490.3732	-0.000123
490.5956	-0.001456
490.8180	-0.001223
491.0405	-0.000610
491.2630	-0.000420
491.4854	-0.000525
491.7079	-0.000864
491.9304	-0.000568
492.1529	0.000680
492.3755	0.001230
492.5980	0.000617
492.8205	0.000046
493.0431	-0.001244
493.2657	0.000575
493.4882	0.000680
493.7108	-0.001075
493.9334	-0.000969
494.1561	-0.000927
494.3787	0.001801
494.6013	-0.000758
494.8240	-0.000335
495.0466	-0.000060
495.2693	-0.000060
495.4920	0.000088
495.7147	0.000384
495.9374	-0.001858
496.1601	0.001442
496.3829	-0.001625
496.6056	0.000913
496.8284	-0.001160
497.0511	-0.000610
497.2739	-0.000356
497.4967	0.000490
497.7195	0.000173
497.9423	-0.000250
498.1652	-0.000398
498.3880	0.000427
498.6109	-0.000462
498.8337	-0.000187
499.0566	-0.000314
499.2795	0.000955
499.5024	-0.000293
499.7253	0.000130
499.9482	-0.001075
500.1712	0.000215
500.3941	0.000934
500.6171	0.000892
500.8400	-0.000271
501.0630	-0.000314
501.2860	-0.000631
501.5090	0.001188
501.7320	-0.000250
501.9551	-0.000546
502.1781	0.000004
502.4012	0.001125
502.6242	-0.002112
502.8473	-0.000081
503.0704	0.000278
503.2935	0.000384
503.5166	0.000025
503.7397	0.001526
503.9628	-0.001096
504.1860	-0.000271
504.4092	-0.001012
504.6323	0.001971
504.8555	-0.000039
505.0787	-0.000906
505.3019	0.000553
505.5251	-0.000673
505.7483	0.000342
505.9716	0.001400
506.1948	-0.000081
506.4181	-0.000969
506.6414	0.000490
506.8647	0.000130
507.0880	0.001696
507.3113	-0.000694
507.5346	-0.000568
507.7579	0.000215
507.9813	-0.000420
508.2046	0.001357
508.4280	-0.000631
508.6514	-0.000821
508.8748	-0.000631
509.0982	-0.000673
509.3216	0.000363
509.5450	0.000215
509.7685	0.000257
509.9919	-0.000335
510.2154	0.000257
510.4388	-0.000631
510.6623	-0.000525
510.8858	0.001442
511.1093	0.000004
511.3329	0.001167
511.5564	-0.000229
511.7799	-0.000800
512.0035	0.001273
512.2270	0.000871
512.4506	-0.000737
512.6742	0.000807
512.8978	-0.001202
513.1214	0.001632
513.3451	-0.002069
513.5687	-0.001308
513.7923	-0.000060
514.0160	-0.000018
514.2397	-0.000335
514.4634	-0.000610
514.6871	-0.000525
514.9108	0.000955
515.1345	0.001569
515.3582	0.000828
515.5819	0.000617
515.8057	-0.000187
516.0295	-0.000314
516.2532	0.000194
516.4770	-0.001816
516.7008	0.001463
516.9246	0.000342
517.1485	0.000173
517.3723	-0.000927
517.5961	0.000257
517.8200	-0.001329
518.0439	0.000511
518.2677	-0.000927
518.4916	-0.000969
518.7155	0.001336
518.9395	0.000765
519.1634	0.000871
519.3873	0.001336
519.6113	0.000617
519.8352	0.001844
520.0592	-0.000356
520.2832	0.000215
520.5072	0.000067
520.7312	-0.001012
520.9552	-0.000568
521.1792	0.000046
521.4033	0.000617
521.6273	-0.001139
521.8514	-0.000039
522.0755	0.000934
522.2996	-0.000504
522.5237	-0.000504
522.7478	0.000004
522.9719	-0.002556
523.1960	0.002267
523.4202	-0.000631
523.6443	-0.001519
523.8685	0.001146
524.0927	0.000638
524.3169	-0.000166
524.5411	-0.001604
524.7653	-0.001985
524.9895	-0.000546
525.2138	0.000596
525.4380	-0.000906
525.6623	-0.001392
525.8865	0.000342
526.1108	-0.000145
526.3351	-0.000060
526.5594	-0.000652
526.7837	0.000321
527.0081	-0.000229
527.2324	-0.000039
527.4568	-0.001541
527.6811	-0.000716
527.9055	-0.000145
528.1299	0.000765
528.3543	0.000384
528.5787	0.001548
528.8031	-0.000969
529.0276	0.000998
529.2520	-0.001562
529.4765	0.001125
529.7009	-0.001012
529.9254	0.000215
530.1499	-0.000271
530.3744	0.000913
530.5989	0.000448
530.8234	-0.001054
531.0480	0.000469
531.2725	-0.000060
531.4971	0.000596
531.7217	-0.000060
531.9462	-0.001731
532.1708	-0.000927
532.3954	-0.000314
532.6200	0.000892
532.8447	-0.000229
533.0693	-0.001266
533.2940	0.000617
533.5186	0.001273
533.7433	-0.000166
533.9680	0.000744
534.1927	-0.001075
534.4174	0.001378
534.6421	-0.000927
534.8668	-0.001392
535.0916	0.000448
535.3163	0.000617
535.5411	-0.001075
535.7659	0.000257
535.9907	-0.000208
536.2155	0.000215
536.4403	-0.001054
536.6651	0.001526
536.8899	-0.001329
537.1148	0.001421
537.3396	-0.000525
537.5645	0.002542
537.7894	0.000025
538.0143	-0.000969
538.2392	-0.000356
538.4641	-0.000652
538.6890	-0.000483
538.9139	0.000553
539.1389	-0.000568
539.3638	0.000511
539.5888	0.000913
539.8138	0.001273
540.0388	-0.000208
540.2638	-0.000314
540.4888	0.000723
540.7138	0.001611
540.9389	-0.002408
541.1639	0.001590
541.3890	0.000109
541.6140	0.000109
541.8391	-0.000229
542.0642	-0.000250
542.2893	0.001315
542.5144	-0.000123
542.7396	-0.000546
542.9647	0.002055
543.1899	0.001082
543.4150	-0.000843
543.6402	0.002034
543.8654	0.000511
544.0906	-0.001541
544.3158	-0.000864
544.5410	-0.000081
544.7662	-0.001519
544.9915	0.000321
545.2167	0.003430
545.4420	-0.000694
545.6673	0.000088
545.8926	-0.000420
546.1179	-0.000969
546.3432	-0.001392
546.5685	0.000934
546.7938	-0.000504
547.0192	0.001357
547.2445	0.000405
547.4699	0.001675
547.6953	-0.000293
547.9206	-0.000293
548.1460	-0.000568
548.3715	0.001378
548.5969	0.000278
548.8223	-0.000123
549.0478	-0.000166
549.2732	-0.000948
549.4987	-0.001350
549.7242	-0.000166
549.9496	-0.000504
550.1751	0.000152
550.4007	0.000363
550.6262	-0.000631
550.8517	0.000004
551.0773	0.001357
551.3028	0.001230
551.5284	0.004276
551.7540	-0.002260
551.9796	0.000342
552.2052	0.000405
552.4308	0.000955
552.6564	-0.000039
552.8820	0.000300
553.1077	-0.000293
553.3333	0.000300
553.5590	0.000617
553.7847	0.000046
554.0104	0.000786
554.2361	0.000490
554.4618	-0.000504
554.6875	-0.001985
554.9132	0.000850
555.1390	0.000067
555.3648	-0.002365
555.5905	0.000427
555.8163	0.000723
556.0421	-0.000229
556.2679	-0.000546
556.4937	0.000088
556.7195	0.000342
556.9454	0.001061
557.1712	0.000046
557.3971	-0.000927
557.6230	0.000490
557.8488	0.000152
558.0747	-0.001519
558.3006	0.000702
558.5266	0.000511
558.7525	0.000850
558.9784	-0.001202
559.2044	-0.000102
559.4303	-0.000145
559.6563	-0.000250
559.8823	-0.001583
560.1083	0.000215
560.3343	0.000109
560.5603	-0.000060
560.7863	-0.000504
561.0124	-0.000420
561.2384	-0.000335
561.4645	-0.000504
561.6905	-0.000885
561.9166	-0.000589
562.1427	-0.000271
562.3688	-0.000948
562.5949	0.000786
562.8211	-0.000568
563.0472	0.000173
563.2733	-0.001562
563.4995	-0.000927
563.7257	-0.000568
563.9519	0.000173
564.1781	0.001400
564.4043	0.000511
564.6305	0.000955
564.8567	-0.000948
565.0829	0.000680
565.3092	-0.000187
565.5355	-0.000081
565.7617	-0.000991
565.9880	0.000638
566.2143	0.000765
566.4406	0.000215
566.6669	-0.000293
566.8932	0.001971
567.1196	0.000173
567.3459	0.001209
567.5723	0.001886
567.7987	0.000321
568.0250	-0.000779
568.2514	-0.000885
568.4778	0.000448
568.7043	0.000934
568.9307	0.000828
569.1571	0.001040
569.3836	0.000765
569.6100	-0.000737
569.8365	0.000850
570.0630	0.000871
570.2895	0.000173
570.5160	-0.000314
570.7425	-0.001139
570.9690	0.001696
571.1956	0.000892
571.4221	-0.000610
571.6487	0.000109
571.8752	0.001103
572.1018	-0.000737
572.3284	-0.000737
572.5550	-0.002894
572.7816	0.000871
573.0082	0.000109
573.2349	0.001103
573.4615	-0.001498
573.6882	-0.000060
573.9149	-0.000821
574.1415	0.000934
574.3682	0.000257
574.5949	-0.001964
574.8216	0.000088
575.0484	-0.000441
575.2751	-0.000123
575.5018	0.002373
575.7286	-0.000229
575.9554	-0.000673
576.1821	0.000342
576.4089	-0.000293
576.6357	0.001357
576.8626	0.000977
577.0894	-0.000821
577.3162	-0.000504
577.5431	0.000702
577.7699	0.000342
577.9968	0.001611
578.2237	0.000300
578.4505	0.000596
578.6774	0.000300
578.9044	-0.000610
579.1313	-0.001075
579.3582	-0.000187
579.5851	-0.001160
579.8121	-0.000441
580.0391	-0.000293
580.2660	-0.000123
580.4930	-0.000504
580.7200	0.001230
580.9470	-0.000102
581.1741	-0.000335
581.4011	0.000088
581.6281	0.000469
581.8552	0.000638
582.0822	-0.000229
582.3093	0.000215
582.5364	0.000257
582.7635	-0.000250
582.9906	-0.000123
583.2177	0.001717
583.4449	-0.000694
583.6720	0.000871
583.8991	-0.000737
584.1263	-0.001456
584.3535	-0.000610
584.5807	0.000088
584.8079	0.000511
585.0351	0.001146
585.2623	-0.000145
585.4895	-0.000758
585.7167	-0.000568
585.9440	-0.002471
586.1713	0.000723
586.3985	-0.000462
586.6258	-0.000187
586.8531	0.001400
587.0804	0.000130
587.3077	0.000807
587.5350	0.000871
587.7624	0.000046
587.9897	0.000046
588.2171	-0.000081
588.4445	0.000427
588.6718	0.000194
588.8992	0.000532
589.1266	-0.000398
589.3540	-0.000377
589.5815	-0.001054
589.8089	0.001357
590.0363	0.000659
590.2638	0.001378
590.4913	0.000723
590.7187	-0.000314
590.9462	0.000469
591.1737	0.000998
591.4012	0.000363
591.6288	0.001928
591.8563	-0.000991
592.0838	-0.000335
592.3114	-0.000462
592.5389	0.000913
592.7665	-0.001266
592.9941	-0.001054
593.2217	-0.001160
593.4493	-0.000821
593.6769	-0.000694
593.9046	-0.001308
594.1322	-0.000102
594.3598	-0.001223
594.5875	-0.000927
594.8152	0.000236
595.0429	0.001061
595.2705	-0.001350
595.4983	-0.000356
595.7260	-0.000716
595.9537	-0.000991
596.1814	-0.000462
596.4092	-0.000483
596.6369	0.000109
596.8647	-0.000123
597.0925	0.000617
597.3203	-0.001244
597.5481	-0.000271
597.7759	0.000553
598.0037	-0.000462
598.2315	0.000257
598.4594	0.000088
598.6872	-0.000864
598.9151	0.000088
599.1430	0.000469
599.3709	0.001759
599.5988	0.000300
599.8267	-0.001160
600.0546	0.000067
600.2825	0.000786
600.5105	0.000321
600.7384	0.000490
600.9664	0.000765
601.1944	0.001421
601.4223	-0.001012
601.6503	-0.000441
601.8783	-0.001689
602.1064	-0.000293
602.3344	0.000257
602.5624	0.000469
602.7905	0.000723
603.0185	-0.000758
603.2466	-0.000145
603.4747	0.001019
603.7028	0.001548
603.9309	-0.000462
604.1590	-0.002365
604.3871	0.000638
604.6152	-0.000969
604.8434	-0.001667
605.0715	-0.001139
605.2997	0.002119
605.5279	-0.000504
605.7561	0.001167
605.9843	0.000215
606.2125	-0.001350
606.4407	-0.000187
606.6689	0.000617
606.8972	-0.000568
607.1254	0.000934
607.3537	-0.000716
607.5819	0.000553
607.8102	-0.000673
608.0385	-0.000462
608.2668	0.001653
608.4951	-0.000546
608.7235	0.000575
608.9518	-0.000779
609.1801	-0.002112
609.4085	-0.000800
609.6369	0.000342
609.8653	0.000257
610.0936	-0.000250
610.3220	0.000786
610.5505	-0.000991
610.7789	0.001230
611.0073	-0.001266
611.2357	-0.001477
611.4642	-0.000398
611.6927	-0.001350
611.9211	0.000934
612.1496	0.001230
612.3781	0.000173
612.6066	-0.000673
612.8351	0.000532
613.0637	0.000617
613.2922	-0.000398
613.5208	0.001103
613.7493	-0.000250
613.9779	0.000553
614.2065	-0.000504
614.4351	-0.000271
614.6637	-0.000589
614.8923	0.001463
615.1209	0.000004
615.3495	0.000427
615.5782	0.000850
615.8068	0.001886
616.0355	-0.000208
616.2642	0.000405
616.4929	-0.000208
616.7216	-0.000843
616.9503	-0.000250
617.1790	0.000638
617.4077	0.000807
617.6365	0.000300
617.8652	-0.000039
618.0940	0.000680
618.3227	0.001230
618.5515	0.000025
618.7803	-0.000208
619.0091	0.000744
619.2379	0.000194
619.4667	0.000046
619.6956	-0.001879
619.9244	-0.001752
620.1533	0.000702
620.3821	0.001294
620.6110	-0.001075
620.8399	-0.000335
621.0688	-0.001244
621.2977	-0.000102
621.5266	-0.000271
621.7556	-0.000060
621.9845	0.000004
622.2135	0.002288
622.4424	-0.001371
622.6714	0.000109
622.9004	0.001463
623.1294	0.001125
623.3584	-0.001202
623.5874	-0.001075
623.8164	0.000067
624.0454	0.000638
624.2745	-0.001160
624.5035	-0.000737
624.7326	0.000088
624.9617	-0.000885
625.1908	-0.000525
625.4199	-0.001266
625.6490	-0.001837
625.8781	0.000786
626.1072	-0.001562
626.3364	-0.000123
626.5655	-0.002958
626.7947	-0.000187
627.0238	0.001167
627.2530	0.002055
627.4822	-0.000694
627.7114	-0.000631
627.9406	-0.000694
628.1698	-0.000716
628.3991	0.002880
628.6283	0.000342
628.8576	-0.001456
629.0868	0.001400
629.3161	-0.000652
629.5454	-0.000145
629.7747	0.000786
630.0040	-0.000398
630.2333	0.001632
630.4626	0.000025
630.6920	-0.000271
630.9213	0.000511
631.1507	-0.000208
631.3801	0.000363
631.6094	-0.000145
631.8388	0.001971
632.0682	-0.001266
632.2976	0.000469
632.5271	-0.000208
632.7565	0.000215
632.9859	-0.001604
633.2154	0.000490
633.4448	0.001823
633.6743	0.001780
633.9038	0.000363
634.1333	0.001336
634.3628	-0.000145
634.5923	-0.000102
634.8218	-0.001033
635.0514	0.001019
635.2809	-0.000377
635.5105	0.001125
635.7400	-0.000314
635.9696	-0.001329
636.1992	0.000998
636.4288	-0.000293
636.6584	0.001463
636.8880	-0.000568
637.1177	0.000448
637.3473	-0.001033
637.5770	0.001675
637.8066	-0.000969
638.0363	-0.000546
638.2660	0.001273
638.4957	-0.000377
638.7254	0.000236
638.9551	0.001273
639.1848	-0.000398
639.4145	0.000850
639.6443	-0.000821
639.8740	0.001304
640.1038	-0.002011
640.3336	-0.000383
640.5633	0.000728
640.7931	0.001562
641.0229	0.000677
641.2528	-0.000039
641.4826	-0.000379
641.7124	-0.000763
641.9423	-0.000018
642.1721	0.002563
642.4020	-0.000337
642.6319	-0.000060
642.8617	0.000975
643.0916	0.000447
643.3216	0.001085
643.5515	0.000427
643.7814	-0.001325
644.0113	0.000144
644.2413	-0.000110
644.4712	0.000339
644.7012	-0.000980
644.9312	0.000294
645.1612	-0.000333
645.3912	0.001193
645.6212	0.000806
645.8512	0.002998
646.0812	-0.001671
646.3113	0.000406
646.5413	-0.000640
646.7714	0.002253
647.0015	-0.002046
647.2316	-0.001549
647.4616	-0.000196
647.6918	-0.000353
647.9219	-0.000174
648.1520	0.000356
648.3821	0.000201
648.6123	0.000356
648.8424	0.000091
649.0726	0.000544
649.3028	-0.000278
649.5329	-0.000790
649.7631	0.000239
649.9933	-0.000145
650.2236	-0.000882
650.4538	-0.000144
650.6840	-0.000654
650.9143	0.000621
651.1445	0.000430
651.3748	0.000687
651.6051	-0.002077
651.8354	-0.000592
652.0657	0.000791
652.2960	0.000321
652.5263	-0.000425
652.7566	0.000731
652.9870	-0.001427
653.2173	0.001777
653.4477	-0.001211
653.6780	-0.001565
653.9084	0.000982
654.1388	0.000281
654.3692	-0.000973
654.5996	-0.000852
654.8300	0.000902
655.0605	-0.000894
655.2909	-0.000061
655.5213	0.000672
655.7518	-0.000923
655.9823	0.000968
656.2128	-0.000974
656.4433	-0.000124
656.6738	-0.000741
656.9043	0.000346
657.1348	-0.000060
657.3653	-0.000103
657.5959	0.000323
657.8264	0.001399
658.0570	-0.000482
658.2875	0.000449
658.5181	-0.001178
658.7487	0.000130
658.9793	0.000935
659.2099	-0.000593
659.4406	-0.000039
659.6712	-0.000018
659.9018	-0.000993
660.1325	-0.000060
660.3632	-0.000562
660.5938	-0.000440
660.8245	0.001999
661.0552	-0.000441
661.2859	0.000682
661.5166	-0.000587
661.7474	-0.001799
661.9781	0.000173
662.2088	-0.000781
662.4396	0.001071
662.6704	-0.002018
662.9011	0.000662
663.1319	0.000341
663.3627	0.000088
663.5935	-0.000416
663.8243	-0.000668
664.0552	0.000618
664.2860	0.000939
664.5168	-0.000461
664.7477	-0.000144
664.9786	0.000638
665.2094	-0.000986
665.4403	0.000944
665.6712	-0.000794
665.9021	0.000233
666.1330	0.000551
666.3640	-0.001241
666.5949	0.001442
666.8259	-0.001684
667.0568	0.001299
667.2878	0.000361
667.5188	-0.001138
667.7497	-0.000715
667.9807	0.000517
668.2117	-0.001318
668.4428	0.001230
668.6738	0.000257
668.9048	-0.000420
669.1359	0.000046
669.3669	-0.000187
669.5980	-0.000398
669.8291	0.000004
670.0602	0.000004
670.2913	-0.000293
670.5224	0.000490
670.7535	0.001019
670.9846	-0.000293
671.2157	-0.000039
671.4469	-0.001541
671.6781	0.002457
671.9092	0.000025
672.1404	0.001273
672.3716	-0.001181
672.6028	0.000934
672.8340	-0.001773
673.0652	-0.000377
673.2964	0.000786
673.5277	0.001759
673.7589	-0.000885
673.9902	0.000004
674.2214	0.000934
674.4527	-0.000039
674.6840	0.000342
674.9153	-0.000504
675.1466	-0.000335
675.3779	-0.000102
675.6093	0.000109
675.8406	-0.000229
676.0719	-0.001329
676.3033	-0.000737
676.5347	-0.000864
676.7661	0.000067
676.9974	-0.001392
677.2288	-0.000102
677.4602	0.000130
677.6917	0.000511
677.9231	0.001548
678.1545	0.001949
678.3860	0.000511
678.6174	-0.000821
678.8489	0.000194
679.0804	0.000004
679.3119	-0.001139
679.5434	0.001378
679.7749	-0.000843
680.0064	0.000257
680.2379	-0.000885
680.4694	0.001400
680.7010	-0.000610
680.9325	-0.000420
681.1641	0.000130
681.3957	0.000236
681.6273	-0.000483
681.8589	-0.000145
682.0905	0.000871
682.3221	-0.000187
682.5537	0.001188
682.7854	-0.000081
683.0170	-0.001392
683.2487	-0.001287
683.4803	-0.000293
683.7120	0.000659
683.9437	-0.000885
684.1754	0.001273
684.4071	-0.000504
684.6388	-0.000969
684.8705	-0.000398
685.1023	-0.001223
685.3340	0.000088
685.5658	0.000765
685.7975	-0.000398
686.0293	0.000173
686.2611	-0.000123
686.4929	0.000490
686.7247	-0.001477
686.9565	0.000278
687.1883	0.000448
687.4202	0.001738
687.6520	-0.000039
687.8838	-0.000377
688.1157	-0.001160
688.3476	0.000977
688.5795	0.000342
688.8114	0.001971
689.0433	-0.000716
689.2752	0.000638
689.5071	-0.000969
689.7390	-0.000906
689.9710	-0.000123
690.2029	-0.000589
690.4349	-0.000483
690.6669	-0.000589
690.8988	-0.000948
691.1308	-0.000652
691.3628	-0.000969
691.5948	-0.000187
691.8269	-0.000187
692.0589	0.001082
692.2909	-0.001816
692.5230	-0.000821
692.7550	0.000427
692.9871	0.000998
693.2192	-0.001562
693.4513	-0.000864
693.6834	0.001526
693.9155	-0.001012
694.1476	-0.000356
694.3797	-0.000081
694.6119	-0.000102
694.8440	0.000871
695.0762	-0.002789
695.3083	-0.001202
695.5405	-0.000060
695.7727	-0.000081
696.0049	-0.000589
696.2371	0.000088
696.4693	0.001548
696.7016	-0.000927
696.9338	-0.000060
697.1660	-0.000589
697.3983	0.000850
697.6306	-0.001266
697.8628	-0.000462
698.0951	0.001019
698.3274	-0.001752
698.5597	-0.000864
698.7920	0.005418
699.0243	0.000617
699.2567	-0.000081
699.4890	-0.001689
699.7214	-0.000504
699.9537	0.000152
700.1861	0.001294
700.4185	-0.000441
700.6509	0.000913
700.8833	0.000152
701.1157	-0.000039
701.3481	-0.001033
701.5806	0.000575
701.8130	-0.000927
702.0454	0.000173
702.2779	-0.000610
702.5104	-0.000250
702.7429	-0.001266
702.9753	-0.000018
703.2078	-0.001710
703.4403	0.000913
703.6729	0.000025
703.9054	0.000723
704.1379	0.000194
704.3705	-0.000314
704.6030	0.000088
704.8356	0.000977
705.0682	-0.000610
705.3008	-0.000694
705.5334	-0.000927
705.7660	0.001273
705.9986	-0.000568
706.2312	-0.000166
706.4638	0.000257
706.6965	0.000617
706.9291	-0.000652
707.1618	0.001971
707.3945	-0.000821
707.6272	-0.000462
707.8599	-0.000652
708.0926	0.000363
708.3253	-0.001435
708.5580	-0.001985
708.7907	-0.000758
709.0235	0.000173
709.2562	-0.000123
709.4890	-0.000420
709.7217	-0.001308
709.9545	0.000088
710.1873	-0.000483
710.4201	-0.000525
710.6529	-0.000716
710.8857	-0.000568
711.1186	0.000765
711.3514	-0.000906
711.5842	-0.000800
711.8171	0.001273
712.0500	-0.000504
712.2828	-0.000398
712.5157	0.000363
712.7486	0.000765
712.9815	-0.000546
713.2144	-0.000673
713.4474	-0.001139
713.6803	0.000321
713.9132	-0.000335
714.1462	0.000828
714.3791	-0.001223
714.6121	-0.000631
714.8451	-0.001435
715.0781	0.000046
715.3111	0.000215
715.5441	0.000300
715.7771	0.000807
716.0102	0.001082
716.2432	-0.000314
716.4762	0.000575
716.7093	-0.000758
716.9424	-0.001562
717.1754	0.000257
717.4085	0.001251
717.6416	-0.000589
717.8747	-0.000885
718.1078	-0.001646
718.3410	-0.000525
718.5741	-0.000187
718.8072	-0.002281
719.0404	0.000659
719.2736	0.001442
719.5067	-0.000293
719.7399	0.000278
719.9731	-0.000843
720.2063	0.001442
720.4395	0.001019
720.6727	-0.000314
720.9060	-0.000589
721.1392	0.001082
721.3725	0.000130
721.6057	0.001717
721.8390	0.002753
722.0723	0.001082
722.3055	0.001103
722.5388	-0.001541
722.7721	-0.000377
723.0055	-0.000060
723.2388	0.000427
723.4721	0.000850
723.7055	0.000215
723.9388	0.000257
724.1722	-0.000652
724.4056	-0.000060
724.6389	0.000342
724.8723	-0.000631
725.1057	-0.000081
725.3391	0.001992
725.5726	0.000088
725.8060	0.001421
726.0394	-0.002260
726.2729	-0.000948
726.5063	0.000257
726.7398	0.000977
726.9733	-0.000885
727.2068	-0.000483
727.4403	0.000786
727.6738	-0.000293
727.9073	0.002224
728.1408	0.000723
728.3743	0.000892
728.6079	-0.000737
728.8414	-0.000546
729.0750	0.002013
729.3086	0.000257
729.5421	-0.000081
729.7757	-0.000420
730.0093	0.000638
730.2429	-0.000991
730.4766	-0.000462
730.7102	-0.002175
730.9438	-0.000504
731.1775	0.000553
731.4111	-0.000123
731.6448	0.000173
731.8785	0.000850
732.1122	0.000004
732.3458	0.000363
732.5795	-0.001562
732.8133	0.000596
733.0470	-0.000462
733.2807	0.000765
733.5145	0.000638
733.7482	-0.000821
733.9820	-0.001773
734.2157	-0.000377
734.4495	-0.001752
734.6833	0.000617
734.9171	0.001251
735.1509	0.001040
735.3847	0.000490
735.6185	-0.000546
735.8524	0.000448
736.0862	0.000342
736.3201	-0.000483
736.5539	0.000490
736.7878	0.000490
737.0217	-0.001033
737.2556	0.002563
737.4895	-0.000250
737.7234	-0.000314
737.9573	-0.000398
738.1912	-0.000779
738.4252	0.000955
738.6591	0.000765
738.8931	0.000532
739.1271	0.001188
739.3610	0.000109
739.5950	0.000342
739.8290	-0.000229
740.0630	0.000765
740.2970	0.001040
740.5310	-0.001667
740.7651	0.002542
740.9991	-0.000673
741.2332	0.001040
741.4672	0.001251
741.7013	0.000363
741.9354	-0.000504
742.1695	-0.000081
742.4036	-0.001096
742.6377	-0.001139
742.8718	0.000596
743.1059	0.001251
743.3400	-0.001498
743.5742	0.000448
743.8083	-0.000906
744.0425	-0.000123
744.2767	0.000384
744.5108	-0.000906
744.7450	0.000067
744.9792	0.001146
745.2134	-0.000250
745.4477	0.000130
745.6819	-0.000610
745.9161	-0.001012
746.1504	0.000511
746.3846	0.001357
746.6189	0.001273
746.8532	-0.000166
747.0874	-0.001308
747.3217	0.001801
747.5560	0.000659
747.7903	0.000046
748.0247	-0.001752
748.2590	0.000173
748.4933	-0.001054
748.7277	0.000342
748.9620	0.001251
749.1964	0.000765
749.4308	-0.000546
749.6652	-0.000885
749.8995	-0.001625
750.1339	0.001188
750.3684	-0.000081
750.6028	-0.000060
750.8372	0.000469
751.0717	-0.000991
751.3061	-0.000589
751.5406	0.000596
751.7750	0.000913
752.0095	0.002098
752.2440	-0.000462
752.4785	0.000088
752.7130	0.000892
752.9475	-0.000483
753.1820	0.000004
753.4166	0.000173
753.6511	-0.000271
753.8856	0.000575
754.1202	0.000702
754.3548	0.001209
754.5894	-0.000377
754.8239	0.000384
755.0585	-0.001350
755.2931	-0.000335
755.5278	-0.001392
755.7624	-0.001181
755.9970	-0.000631
756.2317	-0.000060
756.4663	-0.001435
756.7010	-0.000800
756.9356	0.000278
757.1703	-0.000525
757.4050	-0.000123
757.6397	-0.000081
757.8744	0.000659
758.1091	0.000088
758.3438	-0.001202
758.5786	0.000596
758.8133	0.001801
759.0481	0.000532
759.2828	0.000278
759.5176	-0.000166
759.7524	-0.000927
759.9872	-0.001646
760.2220	-0.000166
760.4568	0.000257
760.6916	0.000659
760.9264	0.001336
761.1613	-0.001710
761.3961	0.000278
761.6310	0.000257
761.8658	-0.000758
762.1007	0.001442
762.3356	0.003240
762.5705	-0.000271
762.8054	0.001209
763.0403	-0.000504
763.2752	-0.000060
763.5101	-0.000102
763.7450	-0.000102
763.9800	0.000025
764.2149	0.000363
764.4499	0.002542
764.6849	0.000236
764.9198	0.000659
765.1548	0.001082
765.3898	0.001421
765.6248	0.000955
765.8599	-0.001160
766.0949	-0.001096
766.3299	-0.000081
766.5650	-0.001181
766.8000	-0.001794
767.0351	-0.001646
767.2701	-0.001075
767.5052	-0.000102
767.7403	0.001125
767.9754	-0.000568
768.2105	0.001294
768.4456	0.000109
768.6808	0.000723
768.9159	0.000194
769.1510	0.001188
769.3862	0.001040
769.6214	-0.000758
769.8565	0.001780
770.0917	-0.001033
770.3269	-0.000398
770.5621	-0.001562
770.7973	-0.000546
771.0325	-0.000271
771.2677	0.000215
771.5030	-0.000018
771.7382	0.000321
771.9735	-0.000568
772.2087	-0.001837
772.4440	-0.000821
772.6793	-0.002196
772.9146	0.001188
773.1499	-0.000589
773.3852	-0.001710
773.6205	-0.001858
773.8558	0.000236
774.0911	0.000088
774.3265	-0.001160
774.5618	-0.000568
774.7972	-0.000610
775.0326	0.000553
775.2679	0.001759
775.5033	-0.000758
775.7387	0.001315
775.9741	-0.000123
776.2095	0.000977
776.4450	-0.000102
776.6804	-0.000716
776.9158	-0.001118
777.1513	0.000553
777.3868	-0.001921
777.6222	0.000490
777.8577	-0.001160
778.0932	-0.000123
778.3287	0.000300
778.5642	0.000215
778.7997	-0.000716
779.0352	0.000405
779.2707	-0.001773
779.5063	0.000807
779.7418	0.001823
779.9774	0.000659
780.2130	0.000173
780.4485	0.000977
780.6841	0.000363
780.9197	0.000532
781.1553	-0.000271
781.3909	0.000955
781.6265	-0.000377
781.8622	-0.001964
782.0978	-0.001350
782.3335	0.001019
782.5691	-0.001012
782.8048	0.000511
783.0405	0.000088
783.2761	0.000490
783.5118	0.000998
783.7475	0.000384
783.9832	-0.000229
784.2190	0.000067
784.4547	-0.001139
784.6904	0.000215
784.9262	-0.000673
785.1619	0.000130
785.3977	0.001442
785.6335	-0.000060
785.8692	-0.000843
786.1050	-0.000843
786.3408	0.000469
786.5766	-0.000208
786.8124	-0.001223
787.0483	-0.001054
787.2841	-0.002027
787.5199	0.000871
787.7558	0.000511
787.9917	0.002119
788.2275	-0.001033
788.4634	-0.000864
788.6993	-0.001837
788.9352	0.000300
789.1711	-0.000081
789.4070	0.001696
789.6429	0.000321
789.8789	0.000786
790.1148	-0.000906
790.3507	0.001569
790.5867	-0.000377
790.8227	0.000850
791.0586	0.000046
791.2946	0.000088
791.5306	-0.000335
791.7666	0.000194
792.0026	0.000617
792.2387	0.001167
792.4747	0.000321
792.7107	0.000871
792.9468	-0.001139
793.1828	0.000109
793.4189	0.000194
793.6550	0.001146
793.8910	-0.000420
794.1271	0.000469
794.3632	0.000913
794.5993	0.000553
794.8355	-0.000420
795.0716	-0.001012
795.3077	0.000659
795.5439	-0.000398
795.7800	-0.000906
796.0162	-0.000293
796.2523	-0.000335
796.4885	0.000046
796.7247	-0.000398
796.9609	0.000427
797.1971	0.001273
797.4333	0.001294
797.6695	-0.001879
797.9058	-0.000716
798.1420	-0.001160
798.3783	0.000913
798.6145	0.001230
798.8508	-0.000420
799.0871	-0.001054
799.3233	0.001230
799.5596	0.002605
799.7959	0.001167
800.0322	-0.000483
800.2686	0.000278
800.5049	0.000786
800.7412	-0.000864
800.9776	0.000913
801.2139	0.000532
801.4503	-0.000504
801.6867	-0.000843
801.9230	-0.000716
802.1594	-0.000800
802.3958	-0.001371
802.6322	-0.000293
802.8686	0.000744
803.1051	0.000130
803.3415	-0.000991
803.5779	-0.000314
803.8144	-0.000885
804.0508	0.000427
804.2873	-0.000864
804.5238	-0.000716
804.7603	0.000723
804.9968	-0.000546
805.2333	-0.000039
805.4698	0.000596
805.7063	0.000723
805.9428	-0.000314
806.1794	-0.000187
806.4159	-0.000843
806.6525	-0.001414
806.8890	-0.000652
807.1256	0.000998
807.3622	-0.000060
807.5988	-0.001223
807.8354	-0.000737
808.0720	-0.000166
808.3086	0.000744
808.5452	-0.000779
808.7818	0.001294
809.0185	-0.001223
809.2551	0.001040
809.4918	-0.000293
809.7284	0.001315
809.9651	0.000004
810.2018	0.001082
810.4385	0.000617
810.6752	-0.002133
810.9119	-0.000420
811.1486	0.000786
811.3853	-0.000568
811.6221	0.000532
811.8588	-0.000335
812.0956	-0.001541
812.3323	0.000194
812.5691	-0.001414
812.8059	-0.002556
813.0427	-0.001604
813.2795	-0.000546
813.5163	-0.000589
813.7531	-0.000356
813.9899	-0.000462
814.2267	-0.001181
814.4636	0.000765
814.7004	-0.000843
814.9373	0.000300
815.1742	0.000892
815.4110	-0.000631
815.6479	-0.000335
815.8848	0.000448
816.1217	0.000342
816.3586	0.000088
816.5955	-0.000568
816.8324	0.000638
817.0694	0.001103
817.3063	-0.001964
817.5433	-0.000335
817.7802	0.001823
818.0172	-0.001689
818.2542	0.000405
818.4912	0.000088
818.7282	-0.000420
818.9652	0.002436
819.2022	0.001823
819.4392	0.000617
819.6762	-0.001921
819.9133	-0.001012
820.1503	-0.000250
820.3874	0.001378
820.6244	-0.001096
820.8615	0.000342
821.0986	-0.002450
821.3357	0.000278
821.5727	0.000130
821.8099	0.000278
822.0470	-0.001414
822.2841	-0.000250
822.5212	0.000025
822.7584	-0.001181
822.9955	-0.000991
823.2327	-0.000229
823.4698	-0.000420
823.7070	0.000702
823.9442	0.000384
824.1814	0.000532
824.4186	-0.000441
824.6558	-0.000589
824.8930	-0.000102
825.1302	0.000892
825.3675	-0.000081
825.6047	0.000321
825.8419	0.000553
826.0792	-0.000885
826.3165	-0.000166
826.5537	0.001251
826.7910	0.000934
827.0283	0.000363
827.2656	-0.001646
827.5029	-0.000694
827.7402	0.000427
827.9776	0.000702
828.2149	0.000892
828.4522	0.001294
828.6896	0.001040
828.9270	0.002076
829.1643	-0.000589
829.4017	-0.000018
829.6391	0.000088
829.8765	0.000638
830.1139	-0.000229
830.3513	0.000342
830.5887	-0.000271
830.8261	-0.000123
831.0636	-0.001139
831.3010	-0.000737
831.5385	-0.001562
831.7759	0.000892
832.0134	-0.001012
832.2509	0.000236
832.4884	-0.000737
832.7259	0.000257
832.9634	0.001378
833.2009	0.000744
833.4384	0.001548
833.6759	0.001336
833.9135	-0.000673
834.1510	0.000067
834.3886	-0.000145
834.6261	-0.001392
834.8637	0.000278
835.1013	0.000998
835.3389	-0.000737
835.5765	-0.000927
835.8141	-0.000758
836.0517	0.000596
836.2893	0.000088
836.5269	0.001294
836.7646	0.000638
837.0022	0.001040
837.2399	0.000067
837.4775	-0.001139
837.7152	0.001949
837.9529	-0.000462
838.1906	-0.001012
838.4283	0.002140
838.6660	-0.000885
838.9037	-0.000377
839.1414	0.000765
839.3791	-0.001498
839.6169	-0.000356
839.8546	0.001632
840.0924	-0.000821
840.3302	0.000067
840.5679	-0.000377
840.8057	-0.000991
841.0435	0.000215
841.2813	0.000025
841.5191	-0.000250
841.7569	0.000575
841.9947	-0.001308
842.2326	0.000067
842.4704	-0.000187
842.7082	0.001949
842.9461	0.000130
843.1840	0.000680
843.4218	0.000490
843.6597	0.000342
843.8976	0.000046
844.1355	-0.000356
844.3734	-0.000081
844.6113	0.000575
844.8492	-0.001139
845.0872	0.000765
845.3251	0.000025
845.5631	0.000977
845.8010	-0.000314
846.0390	-0.000060
846.2770	-0.000335
846.5149	0.000215
846.7529	0.000723
846.9909	-0.000335
847.2289	-0.001075
847.4669	0.000152
847.7050	0.002394
847.9430	-0.000187
848.1810	-0.001519
848.4191	0.001696
848.6571	-0.001350
848.8952	0.000828
849.1333	-0.000568
849.3713	0.000723
849.6094	-0.000504
849.8475	0.001273
850.0856	-0.000271
850.3237	0.000511
850.5619	-0.002450
850.8000	0.000215
851.0381	0.000955
851.2763	-0.000166
851.5144	0.000448
851.7526	-0.000420
851.9908	-0.000271
852.2289	-0.000356
852.4671	-0.000441
852.7053	0.000300
852.9435	0.000490
853.1817	0.001886
853.4200	0.000448
853.6582	0.000109
853.8964	0.000342
854.1347	0.001336
854.3729	-0.000673
854.6112	-0.001435
854.8495	-0.000102
855.0877	0.000215
855.3260	0.000152
855.5643	0.000025
855.8026	-0.001752
856.0409	0.000807
856.2792	0.000955
856.5176	0.000152
856.7559	-0.001012
856.9942	0.001992
857.2326	0.001696
857.4710	0.000363
857.7093	0.001167
857.9477	0.000807
858.1861	0.000723
858.4245	-0.000229
858.6629	-0.000504
858.9013	-0.000610
859.1397	0.000786
859.3781	0.000617
859.6166	-0.000102
859.8550	-0.000398
860.0935	0.000257
860.3319	0.000152
860.5704	-0.000102
860.8089	0.000934
861.0473	-0.001414
861.2858	-0.000060
861.5243	0.001125
861.7628	0.001061
862.0013	0.000025
862.2399	-0.000906
862.4784	-0.001139
862.7169	-0.000546
862.9555	0.000680
863.1940	-0.000420
863.4326	0.000490
863.6712	0.000934
863.9098	-0.000229
864.1483	0.001061
864.3869	0.001421
864.6255	-0.000779
864.8642	-0.000737
865.1028	-0.000166
865.3414	-0.000589
865.5800	-0.000737
865.8187	-0.001054
866.0573	0.000152
866.2960	0.000046
866.5347	-0.000694
866.7733	0.000553
867.0120	-0.000039
867.2507	0.001315
867.4894	-0.000568
867.7281	-0.000102
867.9669	-0.001625
868.2056	-0.000441
868.4443	0.000152
868.6831	-0.001435
868.9218	0.000427
869.1606	0.000511
869.3993	-0.000250
869.6381	-0.000462
869.8769	0.000384
870.1157	-0.001012
870.3545	0.000321
870.5933	0.000152
870.8321	-0.000314
871.0709	-0.000102
871.3097	0.001442
871.5486	0.000067
871.7874	-0.000060
872.0263	-0.000462
872.2651	0.000109
872.5040	0.000596
872.7429	-0.000504
872.9818	-0.000314
873.2207	0.000427
873.4596	-0.001689
873.6985	-0.000758
873.9374	0.001188
874.1763	-0.000060
874.4153	-0.000758
874.6542	-0.001160
874.8932	-0.000673
875.1321	0.000152
875.3711	-0.000821
875.6101	-0.000589
875.8491	0.000575
876.0880	0.000532
876.3270	-0.001202
876.5661	0.000680
876.8051	-0.000737
877.0441	-0.000991
877.2831	0.001421
877.5222	0.000723
877.7612	-0.000102
878.0003	0.000088
878.2393	0.000321
878.4784	0.000278
878.7175	0.000173
878.9566	0.000004
879.1957	0.000088
879.4348	-0.002133
879.6739	-0.000102
879.9130	-0.000716
880.1521	0.000955
880.3913	-0.000589
880.6304	-0.000060
880.8696	-0.002006
881.1087	0.002859
881.3479	-0.000060
881.5871	0.001611
881.8262	0.000109
882.0654	-0.000906
882.3046	-0.000145
882.5438	0.000638
882.7831	-0.001414
883.0223	0.000807
883.2615	0.000025
883.5007	0.001251
883.7400	0.000744
883.9792	-0.000145
884.2185	0.000342
884.4578	-0.000843
884.6971	0.000977
884.9363	0.001103
885.1756	-0.000737
885.4149	0.000807
885.6542	-0.000229
885.8936	0.000596
886.1329	0.001907
886.3722	-0.000441
886.6116	-0.001625
886.8509	-0.000314
887.0903	0.000046
887.3296	0.000067
887.5690	0.000638
887.8084	-0.000377
888.0478	-0.001096
888.2872	-0.000102
888.5266	-0.002006
888.7660	-0.000906
889.0054	-0.001371
889.2448	-0.001477
889.4843	0.000469
889.7237	-0.001202
889.9632	0.001548
890.2026	0.001188
890.4421	0.000786
890.6816	-0.000398
890.9211	0.001844
891.1606	-0.000293
891.4001	0.002584
891.6396	-0.000356
891.8791	-0.000864
892.1186	0.000511
892.3581	-0.000250
892.5977	0.001928
892.8372	0.000427
893.0768	0.002542
893.3163	0.001336
893.5559	0.000659
893.7955	-0.000271
894.0351	0.001273
894.2747	0.000173
894.5143	0.001167
894.7539	0.000046
894.9935	0.001294
895.2331	-0.000843
895.4727	0.001251
895.7124	-0.000039
895.9520	0.000786
896.1917	-0.001329
896.4314	0.000659
896.6710	0.001928
896.9107	-0.000102
897.1504	-0.000885
897.3901	0.000405
897.6298	-0.003021
897.8695	0.000723
898.1092	0.000702
898.3489	0.000448
898.5887	0.000469
898.8284	0.001188
899.0682	-0.000356
899.3079	-0.001794
899.5477	-0.000250
899.7875	-0.000546
900.0272	-0.001773
900.2670	0.001992
900.5068	0.000004
900.7466	0.000828
900.9864	-0.000568
901.2263	0.000828
901.4661	-0.000462
901.7059	0.000342
901.9458	0.000786
902.1856	-0.000800
902.4255	-0.001583
902.6654	0.000702
902.9052	-0.000779
903.1451	-0.000335
903.3850	0.000300
903.6249	-0.000525
903.8648	-0.000610
904.1047	-0.001033
904.3446	0.000405
904.5846	0.000278
904.8245	0.000702
905.0644	0.000342
905.3044	-0.000800
905.5444	0.000807
905.7843	-0.000039
906.0243	-0.000504
906.2643	-0.000208
906.5043	-0.001181
906.7443	-0.000166
906.9843	-0.000123
907.2243	0.000109
907.4643	0.000257
907.7043	-0.001160
907.9444	-0.000758
908.1844	-0.000039
908.4245	0.000257
908.6645	0.000596
908.9046	-0.000568
909.1447	-0.000589
909.3847	0.001949
909.6248	-0.000800
909.8649	0.000363
910.1050	-0.001477
910.3452	0.000025
910.5853	0.001294
910.8254	-0.000377
911.0655	0.000828
911.3057	0.000680
911.5458	-0.002048
911.7860	0.000342
912.0262	0.000532
912.2663	0.000257
912.5065	-0.000525
912.7467	0.000532
912.9869	-0.000843
913.2271	-0.000166
913.4673	0.000342
913.7075	0.002140
913.9478	-0.000843
914.1880	-0.000250
914.4283	-0.000483
914.6685	0.000553
914.9088	-0.001667
915.1490	0.000532
915.3893	0.000659
915.6296	-0.000525
915.8699	0.000109
916.1102	0.000215
916.3505	-0.000483
916.5908	0.000025
916.8311	-0.000145
917.0714	-0.000335
917.3118	-0.000758
917.5521	-0.001075
917.7925	-0.000991
918.0328	0.000321
918.2732	0.000680
918.5136	0.000384
918.7539	0.000004
918.9943	-0.000060
919.2347	-0.000293
919.4751	0.000257
919.7155	0.000511
919.9560	0.000871
920.1964	0.000427
920.4368	0.001378
920.6773	0.000130
920.9177	0.001526
921.1582	-0.001075
921.3986	0.001357
921.6391	-0.000441
921.8796	0.001019
922.1201	0.000807
922.3606	0.000278
922.6011	0.000871
922.8416	-0.000568
923.0821	-0.001625
923.3226	-0.000102
923.5631	-0.000102
923.8037	-0.000229
924.0442	-0.000166
924.2848	0.000786
924.5254	-0.000398
924.7659	-0.000102
925.0065	0.000659
925.2471	-0.001139
925.4877	-0.000271
925.7283	0.000744
925.9689	-0.000462
926.2095	-0.000694
926.4501	-0.000420
926.6908	0.000871
926.9314	-0.001435
927.1720	0.000173
927.4127	0.001061
927.6533	-0.000694
927.8940	-0.001477
928.1347	-0.001371
928.3754	-0.000927
928.6161	0.000490
928.8568	-0.001033
929.0975	0.000702
929.3382	-0.001519
929.5789	0.001738
929.8196	-0.001583
930.0604	-0.000652
930.3011	0.001759
930.5419	-0.000441
930.7826	0.000765
931.0234	0.001209
931.2642	0.000342
931.5049	0.000152
931.7457	0.000490
931.9865	-0.001266
932.2273	0.001209
932.4681	-0.000737
932.7089	-0.001223
932.9498	0.000427
933.1906	-0.000631
933.4314	-0.000546
933.6723	-0.000123
933.9131	-0.001033
934.1540	0.000744
934.3949	0.000152
934.6358	-0.000758
934.8766	-0.000969
935.1175	-0.001731
935.3584	0.000088
935.5993	-0.001604
935.8403	0.000215
936.0812	0.000109
936.3221	-0.000314
936.5630	-0.001646
936.8040	-0.000018
937.0449	0.000025
937.2859	0.000596
937.5269	-0.001096
937.7678	0.002224
938.0088	-0.000821
938.2498	-0.000123
938.4908	-0.000314
938.7318	-0.000081
938.9728	0.000596
939.2138	-0.001139
939.4549	0.001653
939.6959	-0.002514
939.9369	0.001526
940.1780	-0.000843
940.4190	-0.001731
940.6601	-0.000250
940.9012	0.000300
941.1422	-0.000123
941.3833	-0.000673
941.6244	0.001378
941.8655	-0.000758
942.1066	-0.000737
942.3477	0.000109
942.5889	0.000553
942.8300	0.001103
943.0711	-0.001604
943.3123	-0.000737
943.5534	0.001378
943.7946	-0.000229
944.0357	0.000913
944.2769	-0.001562
944.5181	-0.000462
944.7593	-0.000948
945.0005	0.000680
945.2417	0.000807
945.4829	-0.000293
945.7241	0.000490
945.9653	-0.000377
946.2066	0.000004
946.4478	-0.000483
946.6891	0.000765
946.9303	-0.000568
947.1716	-0.000166
947.4128	-0.000758
947.6541	-0.000525
947.8954	0.000680
948.1367	0.001061
948.3780	0.001717
948.6193	0.000088
948.8606	0.000702
949.1019	-0.000885
949.3433	-0.000483
949.5846	0.000702
949.8259	-0.000779
950.0673	0.000828
950.3086	-0.000208
950.5500	-0.000166
950.7914	-0.000271
951.0327	0.001103
951.2741	0.000405
951.5155	0.001103
951.7569	-0.000123
951.9983	0.001421
952.2398	-0.000060
952.4812	0.000511
952.7226	-0.000800
952.9640	-0.000123
953.2055	-0.001837
953.4469	-0.001139
953.6884	-0.000356
953.9299	0.001505
954.1713	0.001061
954.4128	-0.000187
954.6543	-0.000927
954.8958	-0.000166
955.1373	-0.001266
955.3788	0.000342
955.6203	-0.001096
955.8618	-0.000800
956.1034	-0.002408
956.3449	-0.000568
956.5865	0.000490
956.8280	0.001505
957.0696	0.000025
957.3111	0.000152
957.5527	0.000680
957.7943	0.000977
958.0359	-0.001160
958.2775	0.001865
958.5191	0.000913
958.7607	-0.001329
959.0023	0.000109
959.2439	0.002076
959.4856	-0.001371
959.7272	0.000109
959.9688	-0.001604
960.2105	-0.001731
960.4522	-0.000504
960.6938	0.001696
960.9355	-0.000420
961.1772	0.000871
961.4189	-0.000483
961.6606	-0.000271
961.9023	-0.001244
962.1440	0.000427
962.3857	-0.001075
962.6274	-0.000652
962.8692	-0.001392
963.1109	-0.001900
963.3527	-0.001371
963.5944	-0.000906
963.8362	-0.001012
964.0779	-0.000441
964.3197	-0.002112
964.5615	0.001061
964.8033	-0.001287
965.0451	0.001146
965.2869	0.001103
965.5287	-0.000631
965.7705	-0.000568
966.0123	-0.000673
966.2542	-0.000145
966.4960	0.000850
966.7379	-0.000779
966.9797	0.001823
967.2216	0.000892
967.4634	-0.000039
967.7053	-0.000568
967.9472	0.000215
968.1891	-0.000779
968.4310	-0.000398
968.6729	-0.001308
968.9148	0.001611
969.1567	0.000850
969.3987	0.001061
969.6406	-0.000525
969.8825	-0.000991
970.1245	-0.000039
970.3664	-0.000208
970.6084	-0.001244
970.8504	-0.000335
971.0923	0.000575
971.3343	-0.000525
971.5763	0.000490
971.8183	-0.000314
972.0603	-0.001541
972.3023	0.001378
972.5443	0.000278
972.7864	0.001463
973.0284	-0.000758
973.2704	0.001125
973.5125	-0.001287
973.7545	-0.000187
973.9966	0.000448
974.2387	0.001526
974.4807	-0.000800
974.7228	-0.001858
974.9649	-0.000420
975.2070	-0.000991
975.4491	0.000342
975.6912	0.000892
975.9333	0.000236
976.1755	0.000659
976.4176	-0.000314
976.6597	-0.000991
976.9019	-0.000462
977.1440	0.001082
977.3862	-0.000737
977.6283	0.001103
977.8705	0.000046
978.1127	-0.000420
978.3549	0.001294
978.5971	0.001992
978.8393	0.001251
979.0815	-0.000673
979.3237	-0.000843
979.5659	-0.000039
979.8082	0.000194
980.0504	0.000025
980.2926	-0.000610
980.5349	-0.001266
980.7771	0.000617
981.0194	0.000067
981.2617	-0.000610
981.5040	-0.000969
981.7462	-0.000229
981.9885	0.000405
982.2308	0.000173
982.4731	0.000680
982.7155	0.000532
982.9578	-0.000314
983.2001	-0.001435
983.4424	0.000596
983.6848	0.002140
983.9271	-0.001096
984.1695	-0.001054
984.4118	0.000638
984.6542	-0.000208
984.8966	0.000321
985.1390	0.001611
985.3814	-0.000271
985.6238	-0.000314
985.8662	0.001188
986.1086	-0.000525
986.3510	0.001992
986.5934	-0.001181
986.8358	0.001907
987.0783	-0.001118
987.3207	-0.001689
987.5632	-0.000123
987.8056	-0.000166
988.0481	-0.000166
988.2906	0.000977
988.5331	-0.000335
988.7756	0.000236
989.0180	0.000130
989.2605	0.000786
989.5031	0.000236
989.7456	0.000617
989.9881	0.000046
990.2306	0.001315
990.4732	-0.001667
990.7157	0.000934
990.9582	0.001336
991.2008	0.000828
991.4434	-0.000483
991.6859	0.001780
991.9285	-0.001223
992.1711	-0.000504
992.4137	-0.000652
992.6563	0.001442
992.8989	-0.001879
993.1415	-0.000462
993.3841	-0.000123
993.6267	-0.000398
993.8694	-0.001435
994.1120	0.000130
994.3547	0.000405
994.5973	0.000109
994.8400	0.000765
995.0826	-0.000250
995.3253	-0.000631
995.5680	0.000321
995.8107	-0.000018
996.0534	-0.000187
996.2961	-0.000039
996.5388	0.000384
996.7815	-0.000229
997.0242	0.000257
997.2670	0.001865
997.5097	0.000257
997.7524	0.000088
997.9952	0.001315
998.2379	-0.000123
998.4807	0.001526
998.7235	-0.000060
998.9662	0.001442
999.2090	0.000342
999.4518	0.001611
999.6946	0.000850
999.9374	-0.000123
1000.1802	-0.000885
1000.4230	-0.000398
1000.6659	-0.001033
1000.9087	0.000130
1001.1515	0.001251
1001.3944	-0.000314
1001.6372	-0.001625
1001.8801	0.001188
1002.1230	0.000913
1002.3658	0.000596
1002.6087	0.001759
1002.8516	0.000553
1003.0945	0.001738
1003.3374	-0.000398
1003.5803	0.000236
1003.8232	-0.000673
1004.0661	0.001823
1004.3091	0.000004
1004.5520	0.000617
1004.7949	0.000173
1005.0379	0.000934
1005.2808	-0.000589
1005.5238	-0.001075
1005.7667	0.000109
1006.0097	0.002732
1006.2527	-0.001075
1006.4957	0.001146
1006.7387	-0.000779
1006.9817	-0.001498
1007.2247	-0.000250
1007.4677	-0.000335
1007.7107	0.001209
1007.9538	0.000892
1008.1968	-0.001244
1008.4398	-0.000441
1008.6829	-0.001371
1008.9259	0.000828
1009.1690	0.000786
1009.4121	0.000321
1009.6551	0.000998
1009.8982	0.000765
1010.1413	-0.000694
1010.3844	-0.000885
1010.6275	-0.001837
1010.8706	-0.001287
1011.1137	-0.000758
1011.3568	0.001780
1011.6000	0.001463
1011.8431	0.000109
1012.0863	0.000342
1012.3294	-0.001519
1012.5726	-0.000885
1012.8157	0.000046
1013.0589	0.000723
1013.3021	-0.001160
1013.5452	-0.000800
1013.7884	0.000511
1014.0316	-0.002217
1014.2748	-0.000145
1014.5180	0.000342
1014.7613	-0.001202
1015.0045	-0.000610
1015.2477	-0.000123
1015.4909	-0.000631
1015.7342	0.000596
1015.9774	0.001040
1016.2207	0.000004
1016.4640	-0.002069
1016.7072	-0.000779
1016.9505	-0.000356
1017.1938	0.002774
1017.4371	0.001188
1017.6804	0.000109
1017.9237	-0.001498
1018.1670	0.000702
1018.4103	-0.001752
1018.6536	0.000046
1018.8969	-0.000123
1019.1403	0.000321
1019.3836	-0.000462
1019.6270	0.000004
1019.8703	-0.000525
1020.1137	0.000850
1020.3571	0.000702
1020.6004	-0.000123
1020.8438	0.000088
1021.0872	0.000173
1021.3306	0.000173
1021.5740	0.001103
1021.8174	-0.003106
1022.0608	-0.002958
1022.3042	-0.003021
1022.5477	-0.003085
1022.7911	-0.005158
1023.0345	-0.000694
