# Wavelength (nm)	Intensity (a.u.)
197.7802	0.000828
197.9842	-0.000758
198.1882	0.000004
198.3922	-0.000144
198.5963	-0.000229
198.8003	-0.000715
199.0044	0.000892
199.2085	0.001991
199.4126	0.000744
199.6168	-0.000229
199.8209	0.001674
200.0251	-0.001794
200.2292	0.000236
200.4334	-0.000525
200.6376	0.000807
200.8418	-0.000377
201.0461	0.000109
201.2503	0.000469
201.4546	0.000997
201.6589	0.000109
201.8631	0.002773
202.0674	0.000828
202.2718	0.000870
202.4761	0.000701
202.6805	-0.000123
202.8848	-0.000123
203.0892	0.000574
203.2936	-0.000081
203.4980	-0.001371
203.7024	0.000405
203.9069	0.000004
204.1113	-0.000842
204.3158	0.000638
204.5203	-0.000398
204.7248	0.001272
204.9293	-0.000462
205.1338	0.000913
205.3384	-0.001582
205.5430	0.000490
205.7475	0.000109
205.9521	-0.000229
206.1567	0.000617
206.3614	-0.000102
206.5660	0.001653
206.7706	0.000025
206.9753	0.001272
207.1800	0.000490
207.3847	0.002224
207.5894	0.000088
207.7941	0.000807
207.9989	-0.000208
208.2036	-0.000123
208.4084	0.000997
208.6132	-0.000018
208.8180	-0.000271
209.0228	-0.001223
209.2276	-0.000377
209.4325	0.000955
209.6373	0.000173
209.8422	-0.001857
210.0471	0.000786
210.2520	-0.000927
210.4569	0.001103
210.6618	-0.001033
210.8668	-0.000419
211.0718	0.000300
211.2767	0.001272
211.4817	0.001230
211.6867	0.000426
211.8918	0.001145
212.0968	0.001124
212.3018	0.000278
212.5069	0.000469
212.7120	0.001399
212.9171	0.000046
213.1222	0.000596
213.3273	0.001293
213.5325	0.001462
213.7376	-0.000462
213.9428	-0.000736
214.1480	0.001061
214.3532	-0.001603
214.5584	0.001547
214.7636	-0.000271
214.9689	-0.000927
215.1741	-0.000483
215.3794	0.001336
215.5847	0.000574
215.7900	-0.000948
215.9953	-0.000060
216.2007	0.001103
216.4060	-0.001836
216.6114	0.000215
216.8168	-0.000504
217.0222	0.000553
217.2276	-0.000462
217.4330	0.000680
217.6384	0.002287
217.8439	0.000934
218.0494	-0.000842
218.2548	0.000680
218.4603	0.000278
218.6659	0.001124
218.8714	0.000194
219.0769	0.000511
219.2825	-0.000504
219.4881	-0.000208
219.6936	0.000405
219.8992	0.001610
220.1049	0.000617
220.3105	-0.001667
220.5161	0.000236
220.7218	0.000574
220.9275	0.000870
221.1332	-0.000039
221.3389	-0.000166
221.5446	0.000997
221.7503	0.000173
221.9561	0.000321
222.1618	-0.001371
222.3676	0.001293
222.5734	0.000257
222.7792	-0.000229
222.9850	0.000913
223.1909	0.000236
223.3967	0.000574
223.6026	0.000152
223.8085	0.001018
224.0144	0.001526
224.2203	0.001780
224.4262	0.000870
224.6322	0.000426
224.8381	-0.001117
225.0441	-0.000314
225.2501	0.001145
225.4561	-0.000462
225.6621	-0.000419
225.8681	-0.001350
226.0742	-0.000440
226.2802	-0.001265
226.4863	0.001843
226.6924	-0.000144
226.8985	0.001632
227.1046	-0.000377
227.3107	-0.000123
227.5169	-0.000250
227.7230	0.000426
227.9292	0.002202
228.1354	0.001949
228.3416	0.000553
228.5478	0.001188
228.7541	0.001293
228.9603	0.001230
229.1666	-0.000208
229.3729	0.000976
229.5791	-0.000377
229.7855	-0.002407
229.9918	-0.000758
230.1981	-0.001540
230.4045	0.000405
230.6108	0.001230
230.8172	-0.000377
231.0236	0.000553
231.2300	0.000617
231.4364	-0.000821
231.6429	0.000152
231.8493	0.000130
232.0558	-0.001223
232.2623	-0.001265
232.4688	0.000532
232.6753	-0.000821
232.8818	-0.000292
233.0884	0.000553
233.2949	0.000321
233.5015	0.001674
233.7081	0.000469
233.9147	-0.000356
234.1213	0.001970
234.3279	0.001018
234.5346	-0.001011
234.7413	0.001462
234.9479	-0.000398
235.1546	-0.001688
235.3613	-0.000166
235.5680	0.001568
235.7748	0.000955
235.9815	-0.000208
236.1883	-0.000123
236.3951	0.000934
236.6018	0.002435
236.8087	0.001716
237.0155	0.000596
237.2223	0.000913
237.4292	0.000955
237.6360	-0.000440
237.8429	0.000426
238.0498	0.000934
238.2567	-0.000102
238.4636	0.002477
238.6706	0.000765
238.8775	0.000215
239.0845	-0.000187
239.2915	0.002308
239.4985	0.000215
239.7055	0.001399
239.9125	-0.001181
240.1195	-0.000060
240.3266	0.000321
240.5337	0.000596
240.7407	0.001293
240.9478	0.000638
241.1549	-0.000525
241.3621	0.001124
241.5692	-0.000462
241.7764	0.000469
241.9835	0.000913
242.1907	0.000173
242.3979	-0.000398
242.6051	0.001695
242.8124	0.000638
243.0196	-0.000081
243.2269	0.000405
243.4341	-0.000292
243.6414	0.000109
243.8487	0.001716
244.0560	0.001547
244.2634	0.001484
244.4707	-0.000715
244.6781	0.000574
244.8854	0.001336
245.0928	-0.001075
245.3002	-0.002957
245.5076	0.001145
245.7151	-0.000567
245.9225	0.002583
246.1300	0.000152
246.3375	0.000997
246.5449	-0.000736
246.7524	0.001970
246.9600	0.000997
247.1675	0.001462
247.3750	-0.000610
247.5826	0.000997
247.7902	-0.001054
247.9978	0.001843
248.2054	-0.000863
248.4130	-0.001455
248.6206	-0.000123
248.8283	-0.000483
249.0359	0.000574
249.2436	-0.000504
249.4513	-0.000990
249.6590	0.001420
249.8667	-0.001096
250.0745	0.000236
250.2822	-0.000229
250.4900	-0.000821
250.6978	-0.000250
250.9056	-0.000250
251.1134	0.000469
251.3212	0.000215
251.5290	-0.001181
251.7369	0.000363
251.9447	0.001293
252.1526	-0.000166
252.3605	0.000574
252.5684	-0.001498
252.7763	-0.000673
252.9843	-0.000927
253.1922	0.000828
253.4002	0.000152
253.6082	-0.000863
253.8162	-0.000610
254.0242	-0.000800
254.2322	0.000807
254.4402	-0.000039
254.6483	-0.000440
254.8564	-0.001477
255.0644	0.000025
255.2725	-0.000187
255.4806	-0.001751
255.6888	-0.001751
255.8969	0.000892
256.1051	0.000807
256.3132	-0.000462
256.5214	0.002012
256.7296	-0.000039
256.9378	-0.001730
257.1460	0.000659
257.3543	0.000046
257.5625	-0.000631
257.7708	-0.000758
257.9791	-0.000187
258.1874	-0.001054
258.3957	0.000934
258.6040	0.000130
258.8124	0.000426
259.0207	0.000744
259.2291	-0.000462
259.4375	0.000553
259.6459	-0.000440
259.8543	-0.002470
260.0627	0.000278
260.2711	-0.001667
260.4796	0.000363
260.6881	0.000405
260.8965	0.000342
261.1050	-0.000039
261.3135	0.000765
261.5221	-0.000166
261.7306	0.001166
261.9392	0.000892
262.1477	0.000405
262.3563	-0.000546
262.5649	0.000955
262.7735	0.000004
262.9822	0.000828
263.1908	-0.000483
263.3995	0.002160
263.6081	-0.001138
263.8168	-0.000377
264.0255	-0.000081
264.2342	0.000659
264.4429	0.000067
264.6517	0.001061
264.8604	-0.000694
265.0692	0.001272
265.2780	-0.000356
265.4868	-0.000673
265.6956	-0.000694
265.9044	0.002350
266.1133	0.000934
266.3221	0.000194
266.5310	-0.000166
266.7399	0.000997
266.9488	0.001378
267.1577	0.000659
267.3666	0.000913
267.5755	0.000870
267.7845	0.000194
267.9935	0.000828
268.2024	-0.000694
268.4114	0.000004
268.6205	0.000004
268.8295	0.000004
269.0385	-0.000440
269.2476	0.000130
269.4566	0.000109
269.6657	0.000976
269.8748	-0.000187
270.0839	0.001124
270.2931	-0.000673
270.5022	0.000955
270.7114	-0.000187
270.9205	-0.000906
271.1297	-0.002153
271.3389	0.000976
271.5481	-0.001075
271.7573	-0.000377
271.9666	-0.000144
272.1758	0.000955
272.3851	-0.000842
272.5944	-0.000483
272.8037	-0.001963
273.0130	-0.000546
273.2223	-0.001498
273.4316	-0.000356
273.6410	0.001018
273.8504	0.000870
274.0597	0.000469
274.2691	-0.000652
274.4785	-0.000715
274.6880	0.000088
274.8974	0.001188
275.1069	0.000004
275.3163	-0.000335
275.5258	-0.000398
275.7353	-0.000927
275.9448	0.000194
276.1543	0.000913
276.3639	-0.000736
276.5734	-0.001921
276.7830	0.002879
276.9926	-0.000948
277.2022	0.000638
277.4118	-0.001794
277.6214	0.001293
277.8310	0.000257
278.0407	0.000173
278.2503	-0.000187
278.4600	0.000870
278.6697	0.001251
278.8794	0.000701
279.0891	-0.000250
279.2989	0.002372
279.5086	0.001610
279.7184	0.000574
279.9281	0.000342
280.1379	0.001166
280.3477	-0.001054
280.5576	-0.000631
280.7674	0.000828
280.9772	0.002012
281.1871	-0.000525
281.3970	0.000638
281.6069	0.001906
281.8168	0.000997
282.0267	-0.000462
282.2366	0.000088
282.4466	-0.001350
282.6565	0.001166
282.8665	-0.000335
283.0765	-0.000525
283.2865	0.001166
283.4965	0.000574
283.7065	0.000004
283.9166	-0.000271
284.1266	-0.000906
284.3367	0.000215
284.5468	0.000448
284.7569	-0.000927
284.9670	0.001082
285.1771	0.000638
285.3873	0.000828
285.5974	0.000955
285.8076	0.000934
286.0178	0.000152
286.2280	0.000870
286.4382	0.001674
286.6484	-0.000081
286.8587	0.001230
287.0689	-0.000652
287.2792	0.001166
287.4895	0.001103
287.6998	0.000596
287.9101	-0.000842
288.1204	0.001547
288.3308	-0.001561
288.5411	-0.000018
288.7515	-0.001307
288.9619	-0.000652
289.1723	-0.000039
289.3827	0.000849
289.5931	-0.000166
289.8035	-0.000736
290.0140	0.000490
290.2245	0.000574
290.4349	0.001420
290.6454	0.000849
290.8559	0.000617
291.0665	0.000300
291.2770	0.000384
291.4875	0.000807
291.6981	0.000152
291.9087	-0.000123
292.1193	-0.000102
292.3299	0.001336
292.5405	0.000046
292.7511	-0.000018
292.9618	0.000278
293.1724	0.000004
293.3831	0.001103
293.5938	0.000574
293.8045	0.000109
294.0152	0.000849
294.2260	-0.000335
294.4367	0.000278
294.6475	-0.001603
294.8582	-0.000060
295.0690	0.000934
295.2798	0.001357
295.4906	-0.000419
295.7015	-0.000335
295.9123	-0.001054
296.1232	-0.000060
296.3340	0.000363
296.5449	0.000469
296.7558	-0.000610
296.9667	0.000130
297.1777	0.000173
297.3886	-0.000462
297.5995	-0.000102
297.8105	0.000765
298.0215	-0.000271
298.2325	-0.000694
298.4435	-0.001413
298.6545	0.000088
298.8656	-0.001075
299.0766	-0.001244
299.2877	-0.000631
299.4988	0.000913
299.7099	-0.000398
299.9210	0.001610
300.1321	0.001166
300.3432	0.000638
300.5544	0.000553
300.7655	0.000617
300.9767	0.001420
301.1879	0.000892
301.3991	-0.000292
301.6103	0.000236
301.8215	-0.000610
302.0328	0.000469
302.2441	-0.000229
302.4553	0.001124
302.6666	0.000765
302.8779	-0.000673
303.0892	-0.000144
303.3006	-0.000144
303.5119	0.000025
303.7233	-0.000694
303.9346	0.000067
304.1460	0.000405
304.3574	0.000130
304.5688	-0.001075
304.7803	-0.000250
304.9917	0.001928
305.2031	-0.000123
305.4146	0.000342
305.6261	-0.000546
305.8376	0.000490
306.0491	0.000680
306.2606	-0.000863
306.4722	-0.001096
306.6837	-0.000927
306.8953	-0.001307
307.1069	-0.001202
307.3184	-0.000187
307.5301	-0.000398
307.7417	-0.001477
307.9533	0.000278
308.1650	-0.001138
308.3766	0.000849
308.5883	-0.000800
308.8000	0.000976
309.0117	0.000870
309.2234	0.000088
309.4351	-0.001942
309.6469	0.001166
309.8586	0.000701
310.0704	0.000934
310.2822	-0.000546
310.4940	0.000532
310.7058	-0.000821
310.9176	-0.001159
311.1295	0.000300
311.3413	0.000448
311.5532	-0.001561
311.7651	0.000215
311.9770	-0.000144
312.1889	0.002012
312.4008	-0.000271
312.6127	-0.000102
312.8247	0.000490
313.0366	0.000194
313.2486	-0.001265
313.4606	0.000532
313.6726	0.001209
313.8846	0.000828
314.0967	-0.001561
314.3087	-0.000250
314.5208	-0.000440
314.7328	-0.000567
314.9449	-0.000736
315.1570	0.000025
315.3692	0.000448
315.5813	-0.001286
315.7934	0.000638
316.0056	-0.001075
316.2177	-0.001202
316.4299	-0.000356
316.6421	-0.000187
316.8543	-0.000504
317.0666	-0.000144
317.2788	0.000194
317.4911	-0.001286
317.7033	0.000680
317.9156	0.000828
318.1279	0.001082
318.3402	0.000342
318.5525	-0.001202
318.7649	-0.001307
318.9772	-0.000652
319.1896	0.000448
319.4019	-0.000440
319.6143	-0.000166
319.8267	0.000342
320.0392	0.000553
320.2516	0.000278
320.4640	-0.000631
320.6765	-0.000673
320.8890	0.000363
321.1014	-0.000187
321.3139	0.000109
321.5265	0.001822
321.7390	0.000490
321.9515	-0.001244
322.1641	-0.001350
322.3766	-0.000123
322.5892	0.000765
322.8018	0.000025
323.0144	0.000680
323.2270	0.000426
323.4397	-0.001540
323.6523	-0.000842
323.8650	0.000405
324.0777	-0.001033
324.2904	-0.000060
324.5031	-0.000906
324.7158	-0.000018
324.9285	-0.000292
325.1412	-0.000779
325.3540	0.000426
325.5668	-0.000842
325.7796	0.000109
325.9924	-0.000800
326.2052	0.001378
326.4180	-0.001075
326.6308	0.000828
326.8437	-0.001011
327.0566	0.000469
327.2694	0.000215
327.4823	-0.000546
327.6952	0.000638
327.9082	0.000786
328.1211	0.002118
328.3340	0.000722
328.5470	0.001293
328.7600	0.000490
328.9730	-0.001942
329.1860	0.000384
329.3990	0.001145
329.6120	0.000659
329.8251	-0.000377
330.0381	0.000152
330.2512	0.000659
330.4643	0.000405
330.6774	0.002985
330.8905	0.000342
331.1036	0.000426
331.3167	-0.000927
331.5299	0.000363
331.7431	0.000046
331.9562	-0.001329
332.1694	0.000913
332.3826	-0.000144
332.5959	-0.000419
332.8091	0.002012
333.0223	0.001103
333.2356	0.001526
333.4489	-0.000271
333.6622	0.000448
333.8755	0.000490
334.0888	0.000490
334.3021	0.000088
334.5154	0.000913
334.7288	0.000870
334.9422	0.000574
335.1555	0.000004
335.3689	0.000384
335.5823	0.000617
335.7958	-0.000567
336.0092	0.000828
336.2227	-0.000927
336.4361	0.001441
336.6496	-0.000927
336.8631	0.002583
337.0766	0.000955
337.2901	-0.000081
337.5036	0.000278
337.7172	0.000130
337.9307	0.000004
338.1443	0.000088
338.3579	0.000786
338.5715	0.001864
338.7851	-0.001033
338.9987	0.000574
339.2124	-0.000694
339.4260	-0.000102
339.6397	0.000067
339.8533	-0.000144
340.0670	0.000469
340.2807	-0.000314
340.4945	-0.000335
340.7082	-0.000144
340.9219	0.000617
341.1357	0.000617
341.3495	-0.001181
341.5633	0.000722
341.7771	-0.000440
341.9909	0.002583
342.2047	-0.001117
342.4185	-0.000018
342.6324	0.000321
342.8463	0.000913
343.0601	0.000913
343.2740	0.000004
343.4879	-0.000863
343.7019	-0.000018
343.9158	-0.000525
344.1297	0.001378
344.3437	0.001505
344.5577	0.000426
344.7717	-0.000884
344.9857	0.001737
345.1997	-0.000504
345.4137	0.000828
345.6277	-0.000377
345.8418	-0.000610
346.0559	0.000046
346.2699	-0.000060
346.4840	-0.000039
346.6981	-0.000018
346.9123	-0.001075
347.1264	-0.000673
347.3406	-0.001075
347.5547	0.000278
347.7689	-0.000673
347.9831	-0.001117
348.1973	0.000215
348.4115	0.001314
348.6257	-0.000588
348.8400	-0.000398
349.0542	0.001061
349.2685	0.000744
349.4828	0.001505
349.6971	0.000173
349.9114	-0.001413
350.1257	0.001209
350.3400	0.001124
350.5544	0.001124
350.7687	-0.000419
350.9831	0.000384
351.1975	-0.000081
351.4119	0.000596
351.6263	0.000321
351.8407	0.000828
352.0552	0.000384
352.2696	0.000321
352.4841	0.000004
352.6986	0.000278
352.9131	-0.000525
353.1276	0.000955
353.3421	-0.000906
353.5566	0.000913
353.7712	0.001188
353.9858	0.001188
354.2003	0.000490
354.4149	-0.001096
354.6295	0.000025
354.8441	0.000236
355.0588	0.000257
355.2734	-0.000144
355.4881	-0.000208
355.7027	-0.000462
355.9174	-0.000166
356.1321	0.000236
356.3468	-0.000102
356.5615	0.000363
356.7763	-0.000187
356.9910	0.001061
357.2058	0.001526
357.4206	-0.000102
357.6353	-0.000292
357.8501	0.001505
358.0650	0.000342
358.2798	0.000088
358.4946	0.000849
358.7095	-0.000060
358.9243	-0.000377
359.1392	-0.000462
359.3541	-0.002322
359.5690	0.001885
359.7839	0.001018
359.9989	0.000934
360.2138	-0.000927
360.4288	-0.001857
360.6438	0.000638
360.8587	0.001505
361.0737	0.000130
361.2888	0.000109
361.5038	-0.000144
361.7188	0.000553
361.9339	-0.000821
362.1489	0.000934
362.3640	0.000046
362.5791	0.000976
362.7942	-0.001286
363.0093	0.002054
363.2245	-0.000588
363.4396	0.000997
363.6548	-0.002259
363.8699	0.000173
364.0851	0.002266
364.3003	0.002562
364.5155	-0.001011
364.7308	0.001484
364.9460	0.000511
365.1612	-0.000187
365.3765	0.000828
365.5918	-0.001498
365.8071	-0.000144
366.0224	0.001230
366.2377	0.000152
366.4530	0.000046
366.6684	-0.000335
366.8837	0.000744
367.0991	0.001209
367.3145	-0.000927
367.5299	-0.000610
367.7453	0.000574
367.9607	-0.001307
368.1761	0.000067
368.3916	-0.000779
368.6070	0.000680
368.8225	-0.000144
369.0380	-0.001286
369.2535	0.002033
369.4690	-0.001286
369.6845	0.000025
369.9001	0.000321
370.1156	0.000511
370.3312	0.000638
370.5468	-0.000123
370.7624	0.000130
370.9780	0.000194
371.1936	0.002012
371.4092	-0.000588
371.6249	0.001568
371.8405	0.001547
372.0562	-0.000166
372.2719	-0.001646
372.4876	0.001357
372.7033	-0.000525
372.9190	-0.000081
373.1348	-0.000229
373.3505	0.001547
373.5663	0.000321
373.7820	0.001209
373.9978	-0.000292
374.2136	0.000173
374.4294	0.000870
374.6453	0.001018
374.8611	-0.000800
375.0770	0.001695
375.2928	-0.001836
375.5087	0.000490
375.7246	0.000913
375.9405	0.000067
376.1564	0.002858
376.3724	0.001547
376.5883	0.000088
376.8043	0.000934
377.0203	-0.000673
377.2362	-0.000398
377.4522	-0.001054
377.6682	-0.000018
377.8843	0.000680
378.1003	0.000680
378.3164	0.000067
378.5324	0.000405
378.7485	0.000596
378.9646	-0.000208
379.1807	0.000469
379.3968	0.001632
379.6129	0.001695
379.8291	0.000152
380.0452	-0.001075
380.2614	0.000469
380.4776	-0.000758
380.6938	-0.000969
380.9100	0.000067
381.1262	0.000130
381.3424	-0.000314
381.5587	0.000849
381.7749	-0.000546
381.9912	-0.000250
382.2075	-0.000525
382.4238	0.000617
382.6401	-0.000694
382.8564	-0.000610
383.0728	-0.000462
383.2891	-0.000018
383.5055	0.000342
383.7219	-0.000948
383.9382	-0.000335
384.1546	-0.000398
384.3711	0.001737
384.5875	-0.001033
384.8039	-0.000081
385.0204	0.000553
385.2368	0.000638
385.4533	-0.000123
385.6698	0.000659
385.8863	-0.000927
386.1028	-0.001371
386.3194	-0.001117
386.5359	-0.000990
386.7525	-0.000271
386.9690	0.000215
387.1856	-0.001033
387.4022	-0.000039
387.6188	0.000130
387.8355	-0.001223
388.0521	0.001589
388.2687	0.000278
388.4854	-0.000123
388.7021	-0.000039
388.9188	0.000109
389.1355	0.001547
389.3522	0.000236
389.5689	-0.000335
389.7856	0.000828
390.0024	-0.000335
390.2192	0.000342
390.4359	0.000828
390.6527	0.000469
390.8695	-0.000081
391.0863	-0.001138
391.3032	0.000152
391.5200	-0.000779
391.7369	0.000173
391.9537	0.001293
392.1706	-0.000060
392.3875	-0.000800
392.6044	-0.001244
392.8213	0.001547
393.0383	-0.000039
393.2552	0.000511
393.4722	-0.000779
393.6891	-0.000144
393.9061	0.000384
394.1231	-0.001371
394.3401	-0.000525
394.5572	-0.001519
394.7742	0.000448
394.9912	0.000807
395.2083	-0.000694
395.4254	-0.000715
395.6425	0.000849
395.8596	0.001061
396.0767	-0.001096
396.2938	0.000363
396.5109	0.000194
396.7281	0.000744
396.9453	-0.001625
397.1624	0.001674
397.3796	-0.000631
397.5968	0.000448
397.8140	0.000617
398.0313	-0.000144
398.2485	-0.001138
398.4658	0.000046
398.6830	-0.001033
398.9003	-0.000271
399.1176	-0.001117
399.3349	0.001188
399.5522	-0.000440
399.7696	-0.000462
399.9869	-0.000356
400.2043	0.001124
400.4216	-0.001667
400.6390	0.001336
400.8564	0.001357
401.0738	0.000321
401.2912	-0.000631
401.5087	0.000955
401.7261	0.000067
401.9436	0.001230
402.1610	0.000173
402.3785	0.000067
402.5960	-0.000314
402.8135	-0.000884
403.0310	-0.000335
403.2486	0.000130
403.4661	-0.000525
403.6837	-0.000208
403.9013	0.001145
404.1189	0.000638
404.3365	-0.000948
404.5541	-0.000229
404.7717	-0.000821
404.9893	0.000046
405.2070	-0.001688
405.4246	0.000765
405.6423	-0.000483
405.8600	0.000828
406.0777	-0.000377
406.2954	0.000067
406.5131	-0.000610
406.7309	0.000257
406.9486	-0.001455
407.1664	0.000469
407.3842	-0.000377
407.6020	0.000807
407.8198	-0.000166
408.0376	-0.000588
408.2554	0.001103
408.4733	0.001145
408.6911	0.000892
408.9090	0.000363
409.1269	0.001018
409.3448	-0.000546
409.5627	0.000025
409.7806	-0.001307
409.9985	0.000025
410.2165	0.000596
410.4344	0.000532
410.6524	-0.000610
410.8704	0.000701
411.0884	-0.000800
411.3064	0.001040
411.5244	-0.000927
411.7424	0.000680
411.9605	-0.000525
412.1785	0.000553
412.3966	0.000722
412.6147	0.001547
412.8328	-0.000948
413.0509	-0.000715
413.2690	0.000892
413.4871	-0.000419
413.7053	-0.000504
413.9234	0.000892
414.1416	-0.000863
414.3598	-0.000525
414.5780	0.000321
414.7962	0.000109
415.0144	0.000448
415.2326	0.001272
415.4509	-0.001413
415.6692	-0.000546
415.8874	0.001695
416.1057	0.000532
416.3240	0.000300
416.5423	-0.000462
416.7606	-0.000081
416.9790	-0.000906
417.1973	0.000278
417.4157	-0.001181
417.6341	0.000278
417.8524	-0.001202
418.0708	-0.000398
418.2893	0.001441
418.5077	-0.000229
418.7261	0.001209
418.9446	-0.001350
419.1630	0.000659
419.3815	0.000384
419.6000	-0.001540
419.8185	-0.001011
420.0370	0.001103
420.2555	-0.000271
420.4741	0.001251
420.6926	-0.000018
420.9112	0.000553
421.1298	-0.001561
421.3483	0.001209
421.5669	0.000342
421.7856	-0.000271
422.0042	-0.000314
422.2228	-0.000821
422.4415	-0.000779
422.6601	-0.000335
422.8788	-0.000779
423.0975	0.000744
423.3162	-0.000483
423.5349	-0.000335
423.7536	-0.000525
423.9724	-0.000631
424.1911	0.000384
424.4099	0.002224
424.6287	-0.000187
424.8475	0.001061
425.0663	-0.000483
425.2851	0.001780
425.5039	0.007065
425.7228	0.001737
425.9416	0.001484
426.1605	-0.000588
426.3793	0.000469
426.5982	0.000997
426.8171	0.000004
427.0361	-0.001138
427.2550	-0.000990
427.4739	-0.000356
427.6929	-0.001265
427.9118	0.000130
428.1308	0.001188
428.3498	-0.001455
428.5688	-0.000906
428.7878	-0.000588
429.0068	0.000278
429.2259	-0.000018
429.4449	-0.000821
429.6640	0.000638
429.8831	-0.001519
430.1022	-0.000546
430.3213	-0.000250
430.5404	0.000257
430.7595	0.000300
430.9787	-0.000335
431.1978	0.000722
431.4170	-0.000314
431.6362	-0.000335
431.8553	0.001441
432.0745	0.000004
432.2938	-0.000990
432.5130	0.000448
432.7322	0.001166
432.9515	-0.002428
433.1707	0.000828
433.3900	0.001082
433.6093	-0.000144
433.8286	-0.000800
434.0479	0.001357
434.2673	0.000955
434.4866	-0.001540
434.7059	-0.000377
434.9253	0.000278
435.1447	-0.001117
435.3641	-0.001244
435.5835	-0.000166
435.8029	0.000617
436.0223	-0.000736
436.2418	-0.000187
436.4612	-0.001223
436.6807	0.000490
436.9001	0.000004
437.1196	0.000744
437.3391	-0.000736
437.5586	0.001632
437.7782	-0.002090
437.9977	0.001568
438.2173	-0.000884
438.4368	-0.000166
438.6564	-0.000314
438.8760	0.001272
439.0956	0.001589
439.3152	0.000574
439.5348	0.000701
439.7545	-0.001011
439.9741	0.001462
440.1938	-0.000039
440.4135	0.000448
440.6331	0.002118
440.8528	0.000257
441.0725	0.000744
441.2923	-0.000990
441.5120	0.000194
441.7318	0.000617
441.9515	0.000934
442.1713	-0.001033
442.3911	-0.001667
442.6109	0.000236
442.8307	0.000997
443.0505	0.000130
443.2703	-0.000271
443.4902	-0.000483
443.7101	-0.000166
443.9299	-0.000990
444.1498	0.000405
444.3697	0.000363
444.5896	0.000955
444.8095	0.000405
445.0295	0.000342
445.2494	-0.000610
445.4694	0.000744
445.6894	-0.000990
445.9093	0.000088
446.1293	0.001103
446.3493	0.003429
446.5694	-0.000440
446.7894	-0.000377
447.0094	0.000786
447.2295	0.001399
447.4496	0.000046
447.6696	0.000405
447.8897	-0.000863
448.1098	0.000278
448.3300	0.001505
448.5501	0.000067
448.7702	0.001251
448.9904	-0.001117
449.2106	-0.000356
449.4307	0.000807
449.6509	0.001166
449.8711	0.000300
450.0914	-0.000546
450.3116	-0.000863
450.5318	-0.000356
450.7521	-0.000018
450.9724	0.000152
451.1926	-0.000800
451.4129	-0.001096
451.6332	0.001758
451.8535	0.000511
452.0739	-0.000398
452.2942	0.000109
452.5146	0.000617
452.7349	0.000574
452.9553	-0.000821
453.1757	-0.001223
453.3961	-0.000144
453.6165	0.000701
453.8369	-0.000229
454.0574	0.000363
454.2778	-0.001329
454.4983	-0.001561
454.7188	-0.000356
454.9393	-0.001075
455.1597	0.002012
455.3803	-0.000229
455.6008	0.001082
455.8213	-0.000462
456.0419	-0.000462
456.2624	0.000574
456.4830	0.001272
456.7036	-0.000166
456.9242	-0.001329
457.1448	-0.001011
457.3654	0.001653
457.5860	0.001230
457.8067	-0.000821
458.0274	0.001188
458.2480	-0.001033
458.4687	0.001145
458.6894	0.002224
458.9101	-0.000271
459.1308	-0.001498
459.3516	0.000300
459.5723	-0.000356
459.7931	0.000384
460.0138	-0.000018
460.2346	0.000405
460.4554	0.000511
460.6762	0.000511
460.8970	-0.000419
461.1178	-0.000969
461.3387	-0.001392
461.5595	0.000955
461.7804	0.000321
462.0013	0.000490
462.2222	0.000892
462.4431	0.000765
462.6640	0.000384
462.8849	0.000490
463.1059	0.000025
463.3268	0.000511
463.5478	-0.000694
463.7687	-0.000208
463.9897	-0.000208
464.2107	-0.000842
464.4317	-0.000821
464.6528	0.001209
464.8738	0.001251
465.0948	-0.000229
465.3159	-0.001054
465.5370	0.001040
465.7581	-0.000208
465.9792	-0.000229
466.2003	0.000342
466.4214	0.000596
466.6425	0.000025
466.8637	-0.000123
467.0848	-0.001519
467.3060	0.000490
467.5272	-0.000842
467.7484	0.000913
467.9696	-0.001371
468.1908	0.001251
468.4120	-0.000187
468.6333	0.000913
468.8545	-0.000398
469.0758	-0.000483
469.2970	0.000236
469.5183	0.000532
469.7396	0.000638
469.9610	0.001082
470.1823	0.000849
470.4036	-0.000906
470.6250	-0.001646
470.8463	-0.000546
471.0677	-0.000039
471.2891	-0.000250
471.5105	0.000765
471.7319	0.000004
471.9533	-0.001033
472.1748	-0.000525
472.3962	0.000215
472.6177	-0.001075
472.8391	-0.000779
473.0606	0.000532
473.2821	0.000321
473.5036	-0.000652
473.7251	0.000892
473.9467	-0.000271
474.1682	-0.000906
474.3898	0.000553
474.6113	0.000722
474.8329	0.001061
475.0545	0.000194
475.2761	-0.000102
475.4977	0.000300
475.7193	-0.000610
475.9410	-0.000166
476.1626	-0.000694
476.3843	0.000596
476.6060	-0.000060
476.8277	0.000490
477.0494	-0.001138
477.2711	0.006558
477.4928	-0.000863
477.7145	-0.002703
477.9363	-0.000208
478.1580	0.000765
478.3798	0.000596
478.6016	0.000236
478.8234	0.000342
479.0452	-0.000398
479.2670	-0.000800
479.4888	-0.000610
479.7107	0.001568
479.9325	0.000236
480.1544	0.001124
480.3763	-0.001117
480.5982	-0.000440
480.8201	0.002689
481.0420	0.000257
481.2639	0.000511
481.4859	0.000469
481.7078	-0.000842
481.9298	0.000257
482.1517	0.001166
482.3737	-0.000948
482.5957	0.000130
482.8177	0.000194
483.0398	0.000744
483.2618	-0.001075
483.4838	0.000342
483.7059	0.000278
483.9280	0.000490
484.1501	-0.000906
484.3721	0.000574
484.5943	0.000426
484.8164	-0.000292
485.0385	-0.001202
485.2606	0.000236
485.4828	0.000004
485.7050	-0.000208
485.9271	0.000130
486.1493	0.000680
486.3715	0.000046
486.5937	-0.000419
486.8160	-0.000102
487.0382	0.001061
487.2605	0.001632
487.4827	-0.000419
487.7050	-0.000166
487.9273	-0.000969
488.1496	-0.000123
488.3719	-0.001223
488.5942	0.000765
488.8165	0.000152
489.0389	0.000490
489.2612	-0.000863
489.4836	0.000680
489.7060	-0.000250
489.9284	0.000511
490.1508	0.000574
490.3732	0.000088
490.5956	0.000152
490.8180	0.000976
491.0405	-0.001011
491.2630	0.000955
491.4854	-0.001011
491.7079	0.000067
491.9304	-0.001054
492.1529	-0.001202
492.3755	0.000067
492.5980	0.002202
492.8205	-0.001455
493.0431	0.000997
493.2657	-0.000546
493.4882	-0.000567
493.7108	0.000490
493.9334	-0.000144
494.1561	-0.000504
494.3787	0.000469
494.6013	0.000765
494.8240	0.000004
495.0466	0.001864
495.2693	0.002477
495.4920	0.000384
495.7147	0.000934
495.9374	-0.000927
496.1601	-0.001244
496.3829	-0.000588
496.6056	-0.000483
496.8284	-0.001413
497.0511	-0.001350
497.2739	0.001061
497.4967	-0.000271
497.7195	0.000405
497.9423	-0.000018
498.1652	-0.000842
498.3880	0.000849
498.6109	-0.000588
498.8337	0.000722
499.0566	-0.000335
499.2795	0.000913
499.5024	0.000342
499.7253	0.000617
499.9482	-0.000314
500.1712	0.001040
500.3941	0.000448
500.6171	0.001991
500.8400	-0.001244
501.0630	-0.000715
501.2860	-0.000123
501.5090	-0.000250
501.7320	0.000596
501.9551	0.000934
502.1781	-0.000779
502.4012	0.001758
502.6242	0.000448
502.8473	-0.001794
503.0704	0.000722
503.2935	0.000828
503.5166	-0.001075
503.7397	-0.000060
503.9628	-0.000271
504.1860	-0.000250
504.4092	-0.000440
504.6323	0.000321
504.8555	-0.000483
505.0787	0.000659
505.3019	-0.000314
505.5251	-0.001138
505.7483	0.000278
505.9716	-0.000271
506.1948	-0.001202
506.4181	-0.000842
506.6414	0.000997
506.8647	0.000934
507.0880	0.002287
507.3113	0.000617
507.5346	-0.001075
507.7579	0.000680
507.9813	-0.000525
508.2046	-0.000335
508.4280	-0.001244
508.6514	-0.000567
508.8748	0.000448
509.0982	-0.000610
509.3216	0.001737
509.5450	-0.000398
509.7685	0.001188
509.9919	0.000215
510.2154	-0.000758
510.4388	0.000321
510.6623	0.000934
510.8858	0.000532
511.1093	-0.000102
511.3329	0.001061
511.5564	0.000469
511.7799	-0.000652
512.0035	0.000342
512.2270	0.000236
512.4506	-0.001455
512.6742	0.000321
512.8978	-0.001942
513.1214	0.000617
513.3451	0.001272
513.5687	-0.000948
513.7923	-0.000039
514.0160	0.000236
514.2397	-0.001773
514.4634	0.000744
514.6871	-0.000779
514.9108	0.000532
515.1345	-0.000863
515.3582	0.002498
515.5819	0.000596
515.8057	-0.000377
516.0295	0.000321
516.2532	-0.000906
516.4770	-0.001625
516.7008	0.001822
516.9246	-0.003041
517.1485	0.001843
517.3723	-0.000990
517.5961	-0.000588
517.8200	-0.000060
518.0439	-0.001096
518.2677	-0.001223
518.4916	0.001314
518.7155	0.000638
518.9395	0.001505
519.1634	0.000342
519.3873	0.001230
519.6113	0.001632
519.8352	0.002012
520.0592	-0.000440
520.2832	0.001103
520.5072	0.000342
520.7312	-0.000821
520.9552	-0.000229
521.1792	0.000955
521.4033	0.001378
521.6273	-0.000990
521.8514	-0.000229
522.0755	-0.000588
522.2996	-0.000948
522.5237	-0.000779
522.7478	-0.001329
522.9719	-0.002195
523.1960	0.001949
523.4202	-0.000398
523.6443	-0.000271
523.8685	0.001357
524.0927	0.000152
524.3169	-0.001202
524.5411	0.000321
524.7653	-0.001815
524.9895	-0.000060
525.2138	0.000342
525.4380	-0.000694
525.6623	-0.002026
525.8865	0.001124
526.1108	-0.000842
526.3351	-0.000335
526.5594	-0.000271
526.7837	0.000828
527.0081	0.000342
527.2324	0.000405
527.4568	-0.001329
527.6811	-0.001096
527.9055	0.000659
528.1299	0.000426
528.3543	-0.002111
528.5787	0.001061
528.8031	-0.000546
529.0276	-0.000271
529.2520	0.000025
529.4765	0.001082
529.7009	0.001166
529.9254	0.001040
530.1499	0.001251
530.3744	0.000448
530.5989	-0.000969
530.8234	0.000701
531.0480	-0.000736
531.2725	0.000152
531.4971	-0.000398
531.7217	0.000300
531.9462	-0.000631
532.1708	0.000236
532.3954	-0.000673
532.6200	0.000659
532.8447	0.000828
533.0693	-0.000102
533.2940	-0.000525
533.5186	0.000574
533.7433	-0.001329
533.9680	-0.001371
534.1927	0.000173
534.4174	0.000786
534.6421	-0.000927
534.8668	0.000194
535.0916	0.000109
535.3163	0.000532
535.5411	-0.001033
535.7659	0.001230
535.9907	0.000870
536.2155	-0.001075
536.4403	-0.001286
536.6651	0.000511
536.8899	-0.000990
537.1148	0.000765
537.3396	-0.000060
537.5645	0.001399
537.7894	-0.000377
538.0143	-0.000525
538.2392	-0.000567
538.4641	-0.000440
538.6890	0.000130
538.9139	0.000448
539.1389	0.000025
539.3638	-0.000039
539.5888	0.000109
539.8138	0.000532
540.0388	0.000532
540.2638	0.000997
540.4888	-0.000229
540.7138	0.002393
540.9389	-0.001096
541.1639	0.000278
541.3890	-0.001751
541.6140	0.000786
541.8391	0.001166
542.0642	-0.000906
542.2893	0.000405
542.5144	0.002118
542.7396	0.002181
542.9647	0.002350
543.1899	-0.000039
543.4150	0.000574
543.6402	-0.001202
543.8654	0.001547
544.0906	-0.000884
544.3158	-0.001075
544.5410	0.000997
544.7662	-0.000081
544.9915	0.000511
545.2167	0.000997
545.4420	-0.000715
545.6673	-0.000229
545.8926	-0.000398
546.1179	0.000744
546.3432	-0.000440
546.5685	0.000638
546.7938	-0.000440
547.0192	-0.001561
547.2445	0.000236
547.4699	0.001378
547.6953	0.001674
547.9206	-0.001096
548.1460	0.000574
548.3715	-0.000187
548.5969	0.001103
548.8223	0.000807
549.0478	-0.000335
549.2732	0.000300
549.4987	-0.000504
549.7242	-0.000631
549.9496	-0.000652
550.1751	-0.001434
550.4007	-0.001815
550.6262	0.001272
550.8517	0.000405
551.0773	-0.001329
551.3028	0.000257
551.5284	0.003830
551.7540	-0.000800
551.9796	0.000892
552.2052	-0.001202
552.4308	-0.000990
552.6564	-0.001011
552.8820	0.000997
553.1077	0.002329
553.3333	-0.000144
553.5590	0.000617
553.7847	-0.001477
554.0104	0.000004
554.2361	0.001505
554.4618	-0.000610
554.6875	0.000384
554.9132	0.001145
555.1390	-0.001455
555.3648	-0.001773
555.5905	0.000638
555.8163	0.003090
556.0421	0.000744
556.2679	-0.000483
556.4937	-0.000863
556.7195	-0.000906
556.9454	0.001399
557.1712	-0.000821
557.3971	-0.000715
557.6230	0.000955
557.8488	0.000765
558.0747	0.000405
558.3006	0.000997
558.5266	0.000405
558.7525	0.000067
558.9784	0.000088
559.2044	0.000342
559.4303	0.000384
559.6563	-0.000483
559.8823	-0.000821
560.1083	0.000405
560.3343	0.000997
560.5603	0.001124
560.7863	-0.001392
561.0124	-0.000271
561.2384	-0.001096
561.4645	-0.001455
561.6905	-0.000715
561.9166	0.000321
562.1427	0.000384
562.3688	0.000109
562.5949	0.000617
562.8211	0.000257
563.0472	0.000342
563.2733	-0.000123
563.4995	-0.002597
563.7257	-0.000377
563.9519	-0.000271
564.1781	0.001653
564.4043	-0.000483
564.6305	0.001336
564.8567	-0.000736
565.0829	0.000976
565.3092	0.000321
565.5355	0.000300
565.7617	-0.001561
565.9880	0.001124
566.2143	0.002393
566.4406	0.000638
566.6669	-0.000018
566.8932	0.001632
567.1196	-0.000800
567.3459	-0.000229
567.5723	-0.000694
567.7987	-0.000673
568.0250	-0.000631
568.2514	0.000088
568.4778	-0.001773
568.7043	0.002837
568.9307	-0.000060
569.1571	0.002033
569.3836	0.000892
569.6100	0.000215
569.8365	-0.000292
570.0630	0.000744
570.2895	-0.000440
570.5160	-0.000884
570.7425	-0.000906
570.9690	-0.000018
571.1956	-0.000927
571.4221	0.001632
571.6487	0.000680
571.8752	0.000130
572.1018	0.000511
572.3284	0.000321
572.5550	-0.000483
572.7816	0.001632
573.0082	-0.000335
573.2349	-0.000673
573.4615	0.000067
573.6882	-0.000335
573.9149	0.000469
574.1415	0.001378
574.3682	-0.001582
574.5949	-0.000187
574.8216	-0.000335
575.0484	0.001420
575.2751	0.000426
575.5018	0.001801
575.7286	-0.000927
575.9554	0.000278
576.1821	-0.000187
576.4089	-0.000631
576.6357	0.000744
576.8626	0.000300
577.0894	-0.000144
577.3162	0.001462
577.5431	0.000194
577.7699	-0.000567
577.9968	0.002033
578.2237	0.000574
578.4505	0.000088
578.6774	-0.000377
578.9044	-0.000483
579.1313	0.000088
579.3582	-0.001244
579.5851	-0.001033
579.8121	0.000511
580.0391	-0.000144
580.2660	0.000363
580.4930	0.000004
580.7200	-0.000525
580.9470	0.000934
581.1741	-0.000060
581.4011	0.000257
581.6281	0.000342
581.8552	0.000152
582.0822	0.000109
582.3093	0.000067
582.5364	-0.000927
582.7635	-0.000356
582.9906	0.000976
583.2177	0.001780
583.4449	0.000786
583.6720	0.001864
583.8991	-0.000144
584.1263	-0.000208
584.3535	0.001378
584.5807	0.000215
584.8079	0.000405
585.0351	-0.000694
585.2623	0.000955
585.4895	0.000194
585.7167	-0.000779
585.9440	-0.000356
586.1713	-0.000800
586.3985	0.000130
586.6258	-0.000694
586.8531	0.001505
587.0804	0.000469
587.3077	-0.000673
587.5350	-0.001159
587.7624	0.000744
587.9897	-0.000419
588.2171	-0.001265
588.4445	0.000025
588.6718	0.000532
588.8992	-0.001202
589.1266	0.000300
589.3540	0.000342
589.5815	-0.000652
589.8089	0.001082
590.0363	-0.000440
590.2638	0.002033
590.4913	0.000300
590.7187	0.000088
590.9462	0.000109
591.1737	-0.000419
591.4012	-0.001413
591.6288	0.001928
591.8563	-0.000123
592.0838	-0.000800
592.3114	0.002076
592.5389	0.001272
592.7665	-0.002047
592.9941	-0.001138
593.2217	-0.001117
593.4493	-0.000715
593.6769	-0.000673
593.9046	-0.000567
594.1322	-0.001054
594.3598	0.000384
594.5875	-0.001033
594.8152	-0.000335
595.0429	0.000130
595.2705	-0.000335
595.4983	-0.000652
595.7260	-0.000018
595.9537	-0.000144
596.1814	-0.000271
596.4092	-0.000440
596.6369	0.001610
596.8647	-0.000250
597.0925	-0.000567
597.3203	-0.000440
597.5481	-0.000758
597.7759	-0.000842
598.0037	0.000807
598.2315	0.000828
598.4594	-0.000356
598.6872	-0.000842
598.9151	-0.000821
599.1430	-0.000123
599.3709	0.002118
599.5988	-0.000546
599.8267	0.000046
600.0546	0.000236
600.2825	0.000807
600.5105	0.000215
600.7384	0.000342
600.9664	0.000574
601.1944	-0.001054
601.4223	-0.000483
601.6503	0.001695
601.8783	0.000765
602.1064	-0.002047
602.3344	-0.000736
602.5624	-0.001625
602.7905	0.000870
603.0185	-0.000758
603.2466	-0.000483
603.4747	-0.000356
603.7028	0.000828
603.9309	-0.000377
604.1590	-0.001878
604.3871	0.000109
604.6152	-0.000440
604.8434	-0.001117
605.0715	-0.000779
605.2997	0.000617
605.5279	-0.000863
605.7561	-0.000102
605.9843	0.000469
606.2125	0.000173
606.4407	0.000152
606.6689	0.001801
606.8972	-0.000208
607.1254	0.000067
607.3537	-0.000335
607.5819	0.001018
607.8102	-0.000187
608.0385	-0.000462
608.2668	0.000342
608.4951	0.000152
608.7235	-0.000462
608.9518	-0.000144
609.1801	-0.000927
609.4085	-0.000377
609.6369	0.000849
609.8653	-0.000631
610.0936	-0.000018
610.3220	0.000194
610.5505	-0.001498
610.7789	0.001166
611.0073	0.000025
611.2357	0.000596
611.4642	-0.000779
611.6927	-0.000187
611.9211	0.001378
612.1496	0.000109
612.3781	-0.000758
612.6066	-0.001603
612.8351	0.000405
613.0637	0.001589
613.2922	0.000701
613.5208	0.001737
613.7493	0.000913
613.9779	-0.000546
614.2065	-0.000229
614.4351	-0.000398
614.6637	0.000363
614.8923	0.001145
615.1209	-0.000377
615.3495	0.001399
615.5782	0.000173
615.8068	0.001505
616.0355	-0.000314
616.2642	-0.000166
616.4929	-0.000271
616.7216	0.000405
616.9503	0.000236
617.1790	0.000088
617.4077	-0.002301
617.6365	0.000236
617.8652	0.000321
618.0940	0.000680
618.3227	0.000278
618.5515	0.000025
618.7803	0.000617
619.0091	0.001716
619.2379	0.000617
619.4667	-0.000758
619.6956	0.000088
619.9244	0.000617
620.1533	0.002139
620.3821	-0.000440
620.6110	-0.000060
620.8399	0.000109
621.0688	-0.000166
621.2977	0.000004
621.5266	-0.000187
621.7556	0.001336
621.9845	0.000300
622.2135	0.001653
622.4424	-0.000335
622.6714	-0.000440
622.9004	-0.001307
623.1294	0.002245
623.3584	-0.000525
623.5874	-0.000610
623.8164	0.001695
624.0454	-0.000335
624.2745	0.000997
624.5035	-0.000166
624.7326	-0.000018
624.9617	0.001949
625.1908	-0.002576
625.4199	0.000532
625.6490	-0.001223
625.8781	0.001188
626.1072	-0.001265
626.3364	-0.000610
626.5655	-0.002090
626.7947	-0.000631
627.0238	0.000490
627.2530	0.001441
627.4822	-0.000123
627.7114	-0.000208
627.9406	0.000532
628.1698	-0.000187
628.3991	0.000913
628.6283	0.001166
628.8576	0.000278
629.0868	0.000490
629.3161	0.000870
629.5454	-0.000440
629.7747	0.001399
630.0040	-0.000715
630.2333	0.001399
630.4626	0.000722
630.6920	-0.000419
630.9213	-0.000462
631.1507	0.000617
631.3801	0.000194
631.6094	-0.000990
631.8388	0.000638
632.0682	-0.001286
632.2976	0.001822
632.5271	-0.001223
632.7565	-0.000652
632.9859	0.000067
633.2154	0.000490
633.4448	0.000046
633.6743	0.002837
633.9038	0.001018
634.1333	0.000363
634.3628	-0.000060
634.5923	0.001209
634.8218	-0.001054
635.0514	0.000680
635.2809	-0.000736
635.5105	0.000659
635.7400	0.000342
635.9696	-0.001836
636.1992	-0.000567
636.4288	-0.000673
636.6584	-0.000166
636.8880	-0.000144
637.1177	0.000765
637.3473	0.001357
637.5770	0.000617
637.8066	-0.000250
638.0363	-0.001159
638.2660	0.001018
638.4957	-0.000462
638.7254	0.000976
638.9551	0.000574
639.1848	-0.000419
639.4145	-0.000271
639.6443	0.000426
639.8740	0.000813
640.1038	-0.000230
640.3336	0.000004
640.5633	-0.000487
640.7931	0.000238
641.0229	0.000130
641.2528	0.000893
641.4826	-0.000103
641.7124	-0.000401
641.9423	0.000832
642.1721	0.001837
642.4020	-0.000720
642.6319	-0.000144
642.8617	0.001524
643.0916	-0.000334
643.3216	-0.000040
643.5515	-0.000620
643.7814	0.000805
644.0113	0.000400
644.2413	-0.001502
644.4712	0.000897
644.7012	0.000026
644.9312	0.000896
645.1612	-0.001681
645.3912	0.001821
645.6212	0.000784
645.8512	0.001534
646.0812	-0.000554
646.3113	0.000361
646.5413	0.000004
646.7714	0.000004
647.0015	-0.001154
647.2316	-0.000174
647.4616	0.000782
647.6918	0.000605
647.9219	-0.000151
648.1520	0.001147
648.3821	0.000399
648.6123	-0.000657
648.8424	0.000593
649.0726	-0.001120
649.3028	0.001109
649.5329	-0.001411
649.7631	-0.000317
649.9933	-0.000805
650.2236	-0.000945
650.4538	-0.000565
650.6840	0.000958
650.9143	0.001153
651.1445	-0.000316
651.3748	0.000900
651.6051	-0.001673
651.8354	0.000833
652.0657	0.001174
652.2960	0.000236
652.5263	-0.000018
652.7566	-0.000061
652.9870	-0.000530
653.2173	-0.001031
653.4477	-0.001679
653.6780	0.000669
653.9084	0.000684
654.1388	0.001883
654.3692	-0.000866
654.5996	-0.000103
654.8300	-0.002093
655.0605	-0.000979
655.2909	0.000197
655.5213	0.000348
655.7518	0.000004
655.9823	0.000261
656.2128	-0.001632
656.4433	0.001302
656.6738	-0.001527
656.9043	-0.000361
657.1348	-0.000144
657.3653	-0.000337
657.5959	-0.000763
657.8264	0.000849
658.0570	-0.001831
658.2875	0.000575
658.5181	0.000510
658.7487	0.000615
658.9793	0.000829
659.2099	-0.000763
659.4406	-0.001509
659.6712	-0.000919
659.9018	-0.001119
660.1325	-0.000422
660.3632	0.000003
660.5938	-0.001369
660.8245	0.000343
661.0552	0.000151
661.2859	-0.000759
661.5166	0.000657
661.7474	0.000491
661.9781	0.000279
662.2088	-0.000738
662.4396	-0.001105
662.6704	-0.001209
662.9011	0.002211
663.1319	-0.000355
663.3627	0.000257
663.5935	-0.001108
663.8243	0.000213
664.0552	0.000025
664.2860	0.001437
664.5168	0.000975
664.7477	-0.000144
664.9786	0.000046
665.2094	-0.000333
665.4403	0.000943
665.6712	-0.000059
665.9021	-0.001186
666.1330	0.002086
666.3640	-0.000018
666.5949	0.001166
666.8259	0.000278
667.0568	-0.000463
667.2878	-0.000858
667.5188	0.000173
667.7497	0.000553
667.9807	-0.000253
668.2117	-0.000185
668.4428	-0.000187
668.6738	-0.000567
668.9048	-0.000166
669.1359	0.000426
669.3669	0.000680
669.5980	-0.000102
669.8291	-0.000715
670.0602	0.000532
670.2913	0.000469
670.5224	-0.000060
670.7535	0.000913
670.9846	0.000109
671.2157	-0.000314
671.4469	0.000046
671.6781	0.000511
671.9092	0.000384
672.1404	0.000046
672.3716	-0.000884
672.6028	0.000786
672.8340	-0.000504
673.0652	0.000004
673.2964	-0.000081
673.5277	-0.000588
673.7589	0.000363
673.9902	-0.001392
674.2214	0.000955
674.4527	-0.000166
674.6840	-0.000271
674.9153	-0.000271
675.1466	-0.000335
675.3779	-0.000842
675.6093	-0.000694
675.8406	0.000765
676.0719	-0.000187
676.3033	0.000426
676.5347	-0.000250
676.7661	0.001632
676.9974	-0.000292
677.2288	0.000152
677.4602	0.000173
677.6917	0.000426
677.9231	0.000490
678.1545	0.001420
678.3860	-0.001011
678.6174	-0.000715
678.8489	0.000680
679.0804	-0.001202
679.3119	-0.000419
679.5434	0.000321
679.7749	-0.000419
680.0064	-0.000208
680.2379	0.000173
680.4694	0.000490
680.7010	-0.001857
680.9325	-0.002005
681.1641	0.000173
681.3957	-0.000229
681.6273	0.000786
681.8589	0.001188
682.0905	0.000342
682.3221	-0.000102
682.5537	-0.000588
682.7854	0.000321
683.0170	-0.000800
683.2487	0.000448
683.4803	-0.000102
683.7120	0.000278
683.9437	-0.002597
684.1754	0.002498
684.4071	-0.000673
684.6388	0.000532
684.8705	-0.000842
685.1023	0.000828
685.3340	-0.000906
685.5658	0.001188
685.7975	0.000152
686.0293	0.000511
686.2611	0.000004
686.4929	0.001166
686.7247	-0.001202
686.9565	-0.000927
687.1883	-0.000610
687.4202	-0.000166
687.6520	0.000130
687.8838	-0.001329
688.1157	-0.001455
688.3476	0.001737
688.5795	0.000426
688.8114	0.001336
689.0433	-0.000863
689.2752	0.000257
689.5071	-0.000229
689.7390	-0.000018
689.9710	0.000722
690.2029	0.000088
690.4349	-0.000821
690.6669	0.000532
690.8988	0.000321
691.1308	0.001082
691.3628	-0.002153
691.5948	0.000448
691.8269	0.000067
692.0589	0.001928
692.2909	0.000067
692.5230	-0.000652
692.7550	0.000321
692.9871	0.000807
693.2192	0.000426
693.4513	-0.001265
693.6834	0.000004
693.9155	-0.000779
694.1476	-0.000081
694.3797	0.000384
694.6119	-0.000060
694.8440	0.001336
695.0762	-0.001646
695.3083	0.000088
695.5405	-0.000398
695.7727	0.000997
696.0049	0.000130
696.2371	0.000469
696.4693	0.000342
696.7016	-0.001730
696.9338	-0.000335
697.1660	-0.000060
697.3983	0.000976
697.6306	-0.000060
697.8628	0.000469
698.0951	-0.000144
698.3274	-0.001963
698.5597	-0.001265
698.7920	0.005564
699.0243	0.001928
699.2567	0.000934
699.4890	-0.001773
699.7214	0.000680
699.9537	0.001124
700.1861	0.000807
700.4185	-0.000250
700.6509	-0.000102
700.8833	-0.000440
701.1157	-0.000271
701.3481	-0.001921
701.5806	0.001357
701.8130	-0.000927
702.0454	-0.000525
702.2779	-0.000969
702.5104	-0.000990
702.7429	-0.000187
702.9753	0.000828
703.2078	-0.000927
703.4403	0.000300
703.6729	0.001251
703.9054	0.001674
704.1379	0.001166
704.3705	0.000849
704.6030	0.001251
704.8356	0.000215
705.0682	0.000617
705.3008	-0.000821
705.5334	0.001780
705.7660	0.001526
705.9986	-0.000335
706.2312	0.000278
706.4638	0.000321
706.6965	0.000786
706.9291	0.000236
707.1618	0.002139
707.3945	-0.001899
707.6272	0.000469
707.8599	-0.001455
708.0926	-0.000567
708.3253	0.002456
708.5580	-0.001117
708.7907	-0.000166
709.0235	0.000722
709.2562	-0.000018
709.4890	-0.000610
709.7217	-0.000335
709.9545	0.000300
710.1873	0.000680
710.4201	-0.000187
710.6529	0.000574
710.8857	0.000405
711.1186	0.001906
711.3514	-0.000419
711.5842	0.000574
711.8171	-0.001223
712.0500	-0.000440
712.2828	-0.001011
712.5157	-0.000398
712.7486	-0.000018
712.9815	-0.000610
713.2144	-0.000906
713.4474	-0.001540
713.6803	-0.000292
713.9132	0.000088
714.1462	0.001251
714.3791	-0.000081
714.6121	0.001885
714.8451	-0.001413
715.0781	-0.000863
715.3111	-0.001371
715.5441	0.000870
715.7771	-0.001054
716.0102	-0.000948
716.2432	-0.000314
716.4762	0.001843
716.7093	-0.001984
716.9424	0.000236
717.1754	-0.000588
717.4085	0.000088
717.6416	-0.001202
717.8747	-0.000187
718.1078	-0.001244
718.3410	-0.001329
718.5741	-0.000187
718.8072	-0.000906
719.0404	0.001716
719.2736	0.001230
719.5067	-0.001540
719.7399	0.000194
719.9731	-0.000440
720.2063	0.000807
720.4395	0.000278
720.6727	0.001716
720.9060	-0.001836
721.1392	0.001547
721.3725	0.000553
721.6057	0.001357
721.8390	0.001949
722.0723	0.000744
722.3055	0.001124
722.5388	0.001399
722.7721	-0.000504
723.0055	0.000997
723.2388	0.000469
723.4721	0.001399
723.7055	-0.000123
723.9388	-0.000123
724.1722	-0.002005
724.4056	0.000553
724.6389	0.000659
724.8723	-0.000610
725.1057	0.000194
725.3391	0.001864
725.5726	0.000342
725.8060	0.000574
726.0394	-0.000483
726.2729	0.000701
726.5063	0.000130
726.7398	0.000849
726.9733	0.001082
727.2068	0.000426
727.4403	-0.000081
727.6738	0.001505
727.9073	-0.001603
728.1408	0.002160
728.3743	-0.000821
728.6079	0.000574
728.8414	-0.001688
729.0750	-0.000271
729.3086	0.000997
729.5421	0.000405
729.7757	-0.000187
730.0093	0.000173
730.2429	-0.000990
730.4766	-0.001625
730.7102	-0.000736
730.9438	0.000025
731.1775	0.000659
731.4111	0.000384
731.6448	-0.000673
731.8785	0.000490
732.1122	0.000997
732.3458	0.000426
732.5795	0.000596
732.8133	0.000109
733.0470	-0.001202
733.2807	-0.000039
733.5145	0.002160
733.7482	-0.000335
733.9820	-0.001625
734.2157	0.000913
734.4495	-0.000377
734.6833	0.000532
734.9171	-0.000314
735.1509	0.001505
735.3847	-0.000060
735.6185	0.000532
735.8524	-0.000208
736.0862	-0.000250
736.3201	-0.000525
736.5539	0.000194
736.7878	-0.000060
737.0217	-0.000102
737.2556	0.001441
737.4895	-0.000462
737.7234	-0.000377
737.9573	-0.000842
738.1912	-0.000673
738.4252	-0.000187
738.6591	-0.000292
738.8931	0.000786
739.1271	0.000596
739.3610	0.001272
739.5950	-0.000271
739.8290	-0.000102
740.0630	0.000659
740.2970	0.000722
740.5310	-0.000800
740.7651	0.000870
740.9991	-0.000483
741.2332	0.001568
741.4672	-0.000187
741.7013	0.000067
741.9354	-0.002872
742.1695	-0.001836
742.4036	0.000278
742.6377	-0.001096
742.8718	-0.000736
743.1059	0.002012
743.3400	0.001103
743.5742	0.000384
743.8083	-0.000504
744.0425	-0.000187
744.2767	-0.001582
744.5108	-0.001519
744.7450	-0.000187
744.9792	0.000849
745.2134	0.000215
745.4477	-0.000060
745.6819	0.000617
745.9161	-0.001646
746.1504	0.000490
746.3846	0.000786
746.6189	0.000257
746.8532	-0.001138
747.0874	-0.000081
747.3217	0.001124
747.5560	0.000659
747.7903	0.000807
748.0247	-0.001265
748.2590	0.000405
748.4933	0.001018
748.7277	-0.000546
748.9620	-0.000419
749.1964	0.002160
749.4308	-0.000779
749.6652	0.000046
749.8995	-0.002428
750.1339	0.000130
750.3684	-0.001223
750.6028	-0.000673
750.8372	-0.000440
751.0717	0.000976
751.3061	-0.000631
751.5406	-0.000187
751.7750	-0.001159
752.0095	0.003260
752.2440	-0.000250
752.4785	-0.000462
752.7130	0.000152
752.9475	0.001082
753.1820	-0.001434
753.4166	0.000046
753.6511	-0.002238
753.8856	-0.000419
754.1202	0.000152
754.3548	0.000849
754.5894	0.000744
754.8239	-0.000419
755.0585	-0.000483
755.2931	-0.000758
755.5278	-0.000250
755.7624	-0.000673
755.9970	-0.001075
756.2317	0.000532
756.4663	-0.000694
756.7010	-0.000483
756.9356	-0.000525
757.1703	-0.001075
757.4050	0.000067
757.6397	-0.000229
757.8744	0.000109
758.1091	-0.000292
758.3438	-0.001096
758.5786	-0.000842
758.8133	-0.001329
759.0481	0.000596
759.2828	0.000574
759.5176	-0.001498
759.7524	-0.000440
759.9872	-0.001899
760.2220	-0.001244
760.4568	0.001336
760.6916	-0.000398
760.9264	-0.001286
761.1613	0.000617
761.3961	0.000765
761.6310	0.001145
761.8658	-0.001413
762.1007	0.000067
762.3356	0.002308
762.5705	0.000046
762.8054	-0.001011
763.0403	-0.001751
763.2752	0.001462
763.5101	0.001610
763.7450	0.000236
763.9800	0.001547
764.2149	-0.000356
764.4499	0.000574
764.6849	0.000130
764.9198	0.001251
765.1548	0.000384
765.3898	-0.001011
765.6248	-0.000144
765.8599	0.001061
766.0949	0.001547
766.3299	-0.000271
766.5650	0.001378
766.8000	-0.001582
767.0351	-0.000144
767.2701	-0.000462
767.5052	0.000257
767.7403	0.002604
767.9754	-0.000758
768.2105	-0.000018
768.4456	-0.000060
768.6808	0.000680
768.9159	-0.000377
769.1510	0.002668
769.3862	0.002350
769.6214	-0.000356
769.8565	-0.000440
770.0917	0.000405
770.3269	-0.000314
770.5621	0.000257
770.7973	-0.000060
771.0325	0.001970
771.2677	-0.001455
771.5030	0.000786
771.7382	-0.000758
771.9735	-0.001392
772.2087	-0.001455
772.4440	0.000152
772.6793	-0.000652
772.9146	-0.001223
773.1499	0.000490
773.3852	-0.000187
773.6205	-0.002047
773.8558	0.000596
774.0911	0.000553
774.3265	0.000617
774.5618	-0.001307
774.7972	-0.000483
775.0326	0.000469
775.2679	0.000744
775.5033	-0.001011
775.7387	-0.000483
775.9741	-0.000673
776.2095	-0.000462
776.4450	-0.000927
776.6804	0.001251
776.9158	-0.000652
777.1513	-0.001329
777.3868	-0.001329
777.6222	-0.001138
777.8577	-0.000250
778.0932	-0.000419
778.3287	-0.001244
778.5642	-0.000398
778.7997	-0.001625
779.0352	-0.001371
779.2707	0.000321
779.5063	0.000849
779.7418	0.001124
779.9774	0.001124
780.2130	0.000448
780.4485	-0.000842
780.6841	-0.001329
780.9197	0.000173
781.1553	0.001145
781.3909	-0.000166
781.6265	-0.000187
781.8622	-0.000398
782.0978	0.000257
782.3335	0.000659
782.5691	-0.000166
782.8048	0.001336
783.0405	-0.001329
783.2761	0.000321
783.5118	0.000828
783.7475	0.001822
783.9832	-0.000187
784.2190	-0.001181
784.4547	-0.000758
784.6904	0.000215
784.9262	-0.001307
785.1619	0.000046
785.3977	-0.000504
785.6335	-0.001625
785.8692	-0.001540
786.1050	0.001822
786.3408	-0.000440
786.5766	0.000152
786.8124	-0.000102
787.0483	-0.001371
787.2841	0.000574
787.5199	0.001230
787.7558	0.000067
787.9917	-0.000462
788.2275	-0.000166
788.4634	-0.000292
788.6993	-0.002047
788.9352	0.000152
789.1711	-0.001709
789.4070	0.002139
789.6429	-0.000018
789.8789	-0.001265
790.1148	0.000659
790.3507	0.000744
790.5867	-0.001202
790.8227	0.000194
791.0586	-0.000736
791.2946	0.000490
791.5306	0.000828
791.7666	-0.000842
792.0026	0.000849
792.2387	0.000321
792.4747	0.000194
792.7107	0.001251
792.9468	-0.000948
793.1828	0.001040
793.4189	-0.000102
793.6550	0.001420
793.8910	0.000004
794.1271	-0.000525
794.3632	-0.001477
794.5993	-0.000610
794.8355	0.000152
795.0716	-0.001646
795.3077	0.001399
795.5439	-0.000250
795.7800	-0.001265
796.0162	0.000934
796.2523	-0.000102
796.4885	-0.000060
796.7247	-0.000863
796.9609	0.000807
797.1971	-0.000356
797.4333	0.001103
797.6695	-0.000271
797.9058	0.000004
798.1420	-0.001265
798.3783	0.000997
798.6145	-0.000863
798.8508	-0.000250
799.0871	-0.000335
799.3233	0.000870
799.5596	0.000448
799.7959	0.000511
800.0322	0.000236
800.2686	0.001441
800.5049	-0.000314
800.7412	-0.000504
800.9776	0.002583
801.2139	0.000004
801.4503	-0.000800
801.6867	-0.000292
801.9230	-0.000166
802.1594	0.000596
802.3958	-0.001603
802.6322	0.000067
802.8686	0.001082
803.1051	0.001822
803.3415	0.000511
803.5779	-0.000673
803.8144	0.000152
804.0508	0.000152
804.2873	0.000744
804.5238	-0.001434
804.7603	-0.000208
804.9968	0.001378
805.2333	0.000638
805.4698	-0.000440
805.7063	0.000744
805.9428	-0.000588
806.1794	-0.000462
806.4159	-0.001181
806.6525	-0.000208
806.8890	-0.000546
807.1256	0.002160
807.3622	-0.000187
807.5988	-0.000800
807.8354	-0.001540
808.0720	-0.001033
808.3086	0.000617
808.5452	-0.000525
808.7818	0.001610
809.0185	-0.001667
809.2551	0.001420
809.4918	0.000109
809.7284	0.001758
809.9651	0.000638
810.2018	0.001674
810.4385	-0.001307
810.6752	-0.000250
810.9119	-0.001054
811.1486	0.001928
811.3853	0.001040
811.6221	0.000659
811.8588	-0.000504
812.0956	0.000194
812.3323	-0.001350
812.5691	0.000680
812.8059	-0.002322
813.0427	0.000511
813.2795	-0.000652
813.5163	0.000321
813.7531	0.001082
813.9899	0.000300
814.2267	-0.000335
814.4636	-0.000462
814.7004	0.000236
814.9373	-0.001011
815.1742	0.000617
815.4110	0.001801
815.6479	0.000680
815.8848	0.000426
816.1217	-0.000483
816.3586	0.000828
816.5955	-0.000018
816.8324	0.001399
817.0694	0.001293
817.3063	0.000744
817.5433	0.001336
817.7802	0.000680
818.0172	-0.000229
818.2542	0.000997
818.4912	0.001145
818.7282	-0.001646
818.9652	0.000426
819.2022	0.000701
819.4392	-0.000018
819.6762	-0.001434
819.9133	0.000215
820.1503	-0.001392
820.3874	0.000574
820.6244	-0.001434
820.8615	-0.000166
821.0986	-0.000779
821.3357	-0.000335
821.5727	0.000976
821.8099	-0.000060
822.0470	-0.000758
822.2841	-0.001202
822.5212	-0.001202
822.7584	-0.000694
822.9955	0.000532
823.2327	0.000109
823.4698	0.000130
823.7070	-0.000144
823.9442	-0.001519
824.1814	-0.000356
824.4186	0.000511
824.6558	-0.000419
824.8930	-0.000990
825.1302	0.000215
825.3675	0.000490
825.6047	-0.000060
825.8419	-0.000504
826.0792	-0.000821
826.3165	-0.000440
826.5537	0.001547
826.7910	0.001103
827.0283	0.000765
827.2656	-0.000631
827.5029	0.000067
827.7402	-0.000060
827.9776	0.000448
828.2149	-0.000144
828.4522	0.001040
828.6896	-0.000039
828.9270	0.001124
829.1643	0.000659
829.4017	0.001906
829.6391	-0.001519
829.8765	0.003830
830.1139	0.000849
830.3513	0.000363
830.5887	0.000786
830.8261	0.000004
831.0636	-0.000060
831.3010	-0.001371
831.5385	-0.002047
831.7759	0.002012
832.0134	-0.000144
832.2509	0.000405
832.4884	-0.000102
832.7259	-0.000314
832.9634	0.000701
833.2009	0.000744
833.4384	0.000173
833.6759	0.000067
833.9135	-0.000250
834.1510	-0.000483
834.3886	-0.001117
834.6261	-0.001667
834.8637	0.000025
835.1013	0.000025
835.3389	0.000321
835.5765	-0.001688
835.8141	-0.000314
836.0517	0.001526
836.2893	-0.000483
836.5269	0.000046
836.7646	0.000490
837.0022	0.000173
837.2399	0.000004
837.4775	-0.001561
837.7152	-0.000990
837.9529	-0.000652
838.1906	0.000257
838.4283	0.000511
838.6660	-0.001540
838.9037	0.000659
839.1414	0.000004
839.3791	0.000490
839.6169	0.000278
839.8546	0.000596
840.0924	-0.000758
840.3302	-0.000631
840.5679	-0.000060
840.8057	-0.000018
841.0435	-0.000715
841.2813	0.000976
841.5191	-0.000884
841.7569	0.000511
841.9947	-0.000102
842.2326	0.000469
842.4704	0.000596
842.7082	0.002202
842.9461	0.000765
843.1840	0.000342
843.4218	-0.001477
843.6597	0.000638
843.8976	-0.000271
844.1355	-0.000060
844.3734	-0.001033
844.6113	0.000997
844.8492	-0.002513
845.0872	-0.000842
845.3251	0.000405
845.5631	0.000088
845.8010	-0.000208
846.0390	0.000934
846.2770	0.000130
846.5149	0.001293
846.7529	0.000722
846.9909	0.001695
847.2289	0.001061
847.4669	0.000659
847.7050	0.001399
847.9430	-0.000229
848.1810	-0.001223
848.4191	-0.000018
848.6571	-0.001117
848.8952	0.000744
849.1333	0.000913
849.3713	0.000173
849.6094	-0.000948
849.8475	0.000701
850.0856	0.000490
850.3237	-0.000166
850.5619	-0.000779
850.8000	0.001145
851.0381	0.000173
851.2763	0.000321
851.5144	-0.001329
851.7526	-0.000292
851.9908	0.000426
852.2289	-0.000440
852.4671	-0.000060
852.7053	0.000321
852.9435	0.000342
853.1817	0.002076
853.4200	-0.001202
853.6582	-0.000102
853.8964	0.001061
854.1347	0.000870
854.3729	0.000342
854.6112	0.000659
854.8495	-0.000060
855.0877	0.000680
855.3260	-0.000588
855.5643	0.000617
855.8026	-0.000039
856.0409	-0.000187
856.2792	0.000173
856.5176	-0.000525
856.7559	0.000067
856.9942	0.001505
857.2326	0.000892
857.4710	-0.000588
857.7093	0.000088
857.9477	0.000913
858.1861	-0.001096
858.4245	0.000109
858.6629	-0.000356
858.9013	0.000067
859.1397	0.000532
859.3781	0.000722
859.6166	-0.000356
859.8550	0.000596
860.0935	-0.000440
860.3319	0.001209
860.5704	0.000532
860.8089	0.000384
861.0473	-0.000208
861.2858	0.000955
861.5243	0.000574
861.7628	-0.000060
862.0013	0.000236
862.2399	-0.000144
862.4784	-0.001244
862.7169	0.000532
862.9555	0.000997
863.1940	-0.000356
863.4326	0.001420
863.6712	0.001780
863.9098	-0.000335
864.1483	-0.000504
864.3869	0.001610
864.6255	0.000405
864.8642	-0.001371
865.1028	-0.000144
865.3414	-0.001329
865.5800	-0.000821
865.8187	0.001336
866.0573	0.000342
866.2960	0.000617
866.5347	-0.000081
866.7733	-0.000652
867.0120	0.000913
867.2507	0.000384
867.4894	0.000722
867.7281	-0.000398
867.9669	-0.000229
868.2056	-0.000102
868.4443	-0.001265
868.6831	-0.000736
868.9218	0.000744
869.1606	0.000363
869.3993	0.000067
869.6381	-0.001667
869.8769	0.000574
870.1157	-0.000631
870.3545	-0.000271
870.5933	-0.000546
870.8321	0.000955
871.0709	-0.001265
871.3097	0.000617
871.5486	0.000194
871.7874	-0.000863
872.0263	0.000300
872.2651	0.000257
872.5040	0.000342
872.7429	-0.001794
872.9818	-0.000335
873.2207	0.000025
873.4596	-0.001582
873.6985	-0.000736
873.9374	-0.000018
874.1763	0.000067
874.4153	-0.000187
874.6542	0.000574
874.8932	0.000659
875.1321	-0.000292
875.3711	-0.000779
875.6101	0.000194
875.8491	0.000278
876.0880	-0.000081
876.3270	-0.001181
876.5661	0.003133
876.8051	0.000955
877.0441	-0.001096
877.2831	0.001462
877.5222	-0.000863
877.7612	0.002160
878.0003	-0.000736
878.2393	0.000596
878.4784	-0.001117
878.7175	-0.001033
878.9566	-0.000123
879.1957	0.002097
879.4348	-0.001413
879.6739	-0.001794
879.9130	0.000405
880.1521	-0.000462
880.3913	0.000701
880.6304	-0.000271
880.8696	-0.000779
881.1087	-0.000335
881.3479	-0.000758
881.5871	0.000638
881.8262	-0.001455
882.0654	0.001526
882.3046	-0.000736
882.5438	-0.000377
882.7831	-0.000208
883.0223	-0.000736
883.2615	0.001293
883.5007	0.000997
883.7400	0.000596
883.9792	0.001674
884.2185	0.000553
884.4578	-0.000419
884.6971	0.001484
884.9363	0.000955
885.1756	0.001230
885.4149	-0.000356
885.6542	-0.000567
885.8936	0.000067
886.1329	0.000278
886.3722	-0.000377
886.6116	-0.000335
886.8509	0.000173
887.0903	-0.000567
887.3296	-0.000018
887.5690	-0.000779
887.8084	-0.000166
888.0478	-0.000990
888.2872	0.000130
888.5266	-0.001286
888.7660	0.002160
889.0054	0.000215
889.2448	-0.000060
889.4843	-0.000018
889.7237	0.000236
889.9632	0.000405
890.2026	0.000913
890.4421	-0.000567
890.6816	0.000173
890.9211	0.001314
891.1606	0.001166
891.4001	0.002033
891.6396	0.000405
891.8791	0.000342
892.1186	0.000321
892.3581	-0.000271
892.5977	0.001378
892.8372	-0.000483
893.0768	0.001378
893.3163	0.001230
893.5559	0.000088
893.7955	0.000384
894.0351	0.001526
894.2747	-0.001223
894.5143	0.000067
894.7539	0.000215
894.9935	0.000300
895.2331	-0.001286
895.4727	0.000955
895.7124	0.000152
895.9520	-0.000060
896.1917	-0.001075
896.4314	0.000617
896.6710	-0.000462
896.9107	-0.000525
897.1504	-0.000927
897.3901	-0.000419
897.6298	-0.000652
897.8695	0.000067
898.1092	0.000807
898.3489	-0.000398
898.5887	-0.001181
898.8284	0.000321
899.0682	0.000173
899.3079	0.000574
899.5477	-0.000821
899.7875	-0.001054
900.0272	-0.000779
900.2670	0.001420
900.5068	-0.000927
900.7466	0.001251
900.9864	0.000384
901.2263	0.001166
901.4661	0.000342
901.7059	0.000194
901.9458	-0.000271
902.1856	-0.000694
902.4255	-0.000250
902.6654	-0.000927
902.9052	-0.001371
903.1451	-0.001075
903.3850	-0.000948
903.6249	0.001166
903.8648	-0.000166
904.1047	-0.000144
904.3446	-0.000546
904.5846	0.002604
904.8245	-0.000250
905.0644	0.000405
905.3044	-0.000715
905.5444	0.000405
905.7843	-0.001329
906.0243	-0.000271
906.2643	0.000152
906.5043	-0.000525
906.7443	-0.002069
906.9843	-0.000229
907.2243	-0.000567
907.4643	-0.000144
907.7043	-0.000652
907.9444	-0.000060
908.1844	-0.000906
908.4245	0.000553
908.6645	-0.001307
908.9046	0.000152
909.1447	-0.000525
909.3847	0.003027
909.6248	-0.000081
909.8649	-0.001350
910.1050	0.000596
910.3452	0.001293
910.5853	0.000574
910.8254	0.000744
911.0655	0.000067
911.3057	-0.000356
911.5458	0.000553
911.7860	0.000828
912.0262	-0.000673
912.2663	-0.000504
912.5065	-0.001011
912.7467	-0.000229
912.9869	-0.001899
913.2271	-0.000356
913.4673	-0.000758
913.7075	0.000934
913.9478	0.000257
914.1880	-0.001307
914.4283	-0.001921
914.6685	-0.000335
914.9088	-0.000906
915.1490	-0.002005
915.3893	-0.000652
915.6296	0.000596
915.8699	0.000130
916.1102	0.000765
916.3505	0.001737
916.5908	0.001251
916.8311	-0.001329
917.0714	-0.001857
917.3118	-0.001075
917.5521	0.000638
917.7925	0.000300
918.0328	0.002329
918.2732	-0.000800
918.5136	0.001547
918.7539	-0.000144
918.9943	0.000469
919.2347	-0.000208
919.4751	0.000384
919.7155	-0.001477
919.9560	-0.000715
920.1964	-0.000758
920.4368	0.000321
920.6773	-0.001286
920.9177	0.000532
921.1582	-0.001033
921.3986	0.000870
921.6391	-0.000567
921.8796	0.000025
922.1201	-0.000694
922.3606	0.000194
922.6011	0.000490
922.8416	-0.000948
923.0821	0.000469
923.3226	0.001462
923.5631	-0.001477
923.8037	-0.000292
924.0442	-0.001498
924.2848	0.000638
924.5254	0.001103
924.7659	0.001632
925.0065	-0.000123
925.2471	0.000574
925.4877	0.001357
925.7283	0.000130
925.9689	-0.001011
926.2095	-0.001244
926.4501	-0.000567
926.6908	0.000997
926.9314	0.000617
927.1720	-0.001371
927.4127	0.001166
927.6533	0.000046
927.8940	-0.002365
928.1347	-0.000504
928.3754	-0.000863
928.6161	0.000257
928.8568	-0.001181
929.0975	0.002202
929.3382	-0.001202
929.5789	-0.000567
929.8196	-0.000588
930.0604	0.000109
930.3011	0.001695
930.5419	0.000955
930.7826	0.001145
931.0234	0.001251
931.2642	0.002139
931.5049	-0.000060
931.7457	-0.000292
931.9865	0.000300
932.2273	-0.000546
932.4681	0.000363
932.7089	-0.000356
932.9498	-0.000610
933.1906	0.000744
933.4314	-0.000250
933.6723	0.001462
933.9131	-0.001329
934.1540	-0.000419
934.3949	0.000321
934.6358	-0.001286
934.8766	-0.000123
935.1175	-0.000800
935.3584	-0.000229
935.5993	-0.000271
935.8403	-0.000271
936.0812	0.001293
936.3221	-0.001033
936.5630	-0.001011
936.8040	-0.000229
937.0449	0.000574
937.2859	-0.000081
937.5269	0.000194
937.7678	0.000004
938.0088	-0.000123
938.2498	0.000067
938.4908	0.000088
938.7318	0.001082
938.9728	0.000849
939.2138	-0.000546
939.4549	0.000109
939.6959	-0.001646
939.9369	0.000300
940.1780	0.000596
940.4190	-0.000123
940.6601	-0.000102
940.9012	-0.000694
941.1422	0.000553
941.3833	-0.000588
941.6244	0.001061
941.8655	-0.000187
942.1066	-0.001371
942.3477	0.000638
942.5889	0.001399
942.8300	-0.000060
943.0711	0.000215
943.3123	-0.000314
943.5534	0.000913
943.7946	-0.000292
944.0357	-0.000631
944.2769	0.000215
944.5181	-0.000440
944.7593	-0.000483
945.0005	-0.001857
945.2417	-0.001498
945.4829	-0.001688
945.7241	0.001737
945.9653	-0.000736
946.2066	0.000997
946.4478	-0.000546
946.6891	-0.000673
946.9303	0.000849
947.1716	0.001462
947.4128	0.000236
947.6541	-0.000800
947.8954	0.000638
948.1367	-0.000271
948.3780	0.000490
948.6193	-0.000123
948.8606	0.000469
949.1019	0.000384
949.3433	-0.000440
949.5846	-0.000018
949.8259	0.001484
950.0673	-0.000060
950.3086	0.000152
950.5500	0.000342
950.7914	0.000976
951.0327	-0.001075
951.2741	-0.000821
951.5155	0.000722
951.7569	-0.001329
951.9983	-0.000123
952.2398	-0.000588
952.4812	-0.001202
952.7226	-0.000229
952.9640	0.000828
953.2055	-0.000779
953.4469	-0.000821
953.6884	-0.000821
953.9299	0.000257
954.1713	-0.000927
954.4128	-0.000102
954.6543	0.000130
954.8958	0.000173
955.1373	-0.000314
955.3788	-0.000673
955.6203	-0.000610
955.8618	0.000152
956.1034	0.000342
956.3449	0.003260
956.5865	0.000913
956.8280	0.000596
957.0696	-0.001709
957.3111	0.001357
957.5527	-0.000673
957.7943	0.000321
958.0359	-0.000314
958.2775	0.000004
958.5191	-0.000039
958.7607	-0.001138
959.0023	-0.000652
959.2439	0.001420
959.4856	-0.000419
959.7272	0.001314
959.9688	-0.000758
960.2105	-0.000229
960.4522	-0.000356
960.6938	0.001378
960.9355	0.002435
961.1772	-0.001921
961.4189	0.000617
961.6606	-0.000102
961.9023	-0.000018
962.1440	0.001209
962.3857	-0.000398
962.6274	0.000617
962.8692	-0.000356
963.1109	-0.000123
963.3527	-0.001350
963.5944	0.000997
963.8362	-0.000271
964.0779	-0.001181
964.3197	0.000215
964.5615	0.000828
964.8033	0.000004
965.0451	0.001526
965.2869	0.000490
965.5287	0.000553
965.7705	0.000405
966.0123	0.000194
966.2542	-0.000821
966.4960	0.000870
966.7379	-0.000863
966.9797	0.002245
967.2216	0.000469
967.4634	-0.000398
967.7053	-0.000546
967.9472	-0.000525
968.1891	-0.000440
968.4310	0.001082
968.6729	-0.000546
968.9148	0.000490
969.1567	0.000025
969.3987	0.001251
969.6406	-0.001244
969.8825	0.000532
970.1245	-0.001159
970.3664	0.000553
970.6084	0.000025
970.8504	0.000807
971.0923	-0.000208
971.3343	0.000448
971.5763	-0.000250
971.8183	-0.000567
972.0603	-0.000525
972.3023	-0.000483
972.5443	-0.000736
972.7864	-0.000884
973.0284	-0.000631
973.2704	0.000722
973.5125	-0.000335
973.7545	-0.000483
973.9966	0.000067
974.2387	-0.000123
974.4807	0.000511
974.7228	-0.000525
974.9649	0.000004
975.2070	-0.001096
975.4491	0.001505
975.6912	-0.000462
975.9333	0.001018
976.1755	-0.001307
976.4176	0.000109
976.6597	0.001695
976.9019	-0.000102
977.1440	-0.000292
977.3862	-0.000652
977.6283	-0.001033
977.8705	-0.001286
978.1127	0.000236
978.3549	-0.000610
978.5971	0.001124
978.8393	0.000701
979.0815	0.000025
979.3237	-0.000758
979.5659	0.002202
979.8082	-0.001181
980.0504	-0.000673
980.2926	-0.000166
980.5349	0.000511
980.7771	0.000722
981.0194	-0.001329
981.2617	0.001209
981.5040	0.000363
981.7462	0.000109
981.9885	0.000215
982.2308	-0.000969
982.4731	0.000680
982.7155	-0.000144
982.9578	-0.000419
983.2001	-0.001054
983.4424	0.000384
983.6848	-0.000144
983.9271	-0.000610
984.1695	0.000870
984.4118	-0.000525
984.6542	-0.000356
984.8966	0.000152
985.1390	-0.000271
985.3814	-0.001519
985.6238	-0.000631
985.8662	0.001674
986.1086	-0.001202
986.3510	0.001716
986.5934	0.000426
986.8358	0.001103
987.0783	-0.000018
987.3207	0.000130
987.5632	0.000215
987.8056	0.000786
988.0481	-0.000419
988.2906	0.000997
988.5331	-0.001688
988.7756	0.001040
989.0180	0.000109
989.2605	-0.000588
989.5031	0.000426
989.7456	-0.000990
989.9881	-0.000314
990.2306	0.000278
990.4732	-0.000588
990.7157	0.000405
990.9582	-0.000271
991.2008	0.001166
991.4434	0.000173
991.6859	-0.000483
991.9285	-0.000081
992.1711	-0.001857
992.4137	-0.001498
992.6563	-0.000483
992.8989	-0.001899
993.1415	-0.000166
993.3841	0.000722
993.6267	-0.000102
993.8694	-0.000144
994.1120	-0.000018
994.3547	0.000236
994.5973	-0.000018
994.8400	-0.000398
995.0826	-0.001117
995.3253	-0.001625
995.5680	0.000659
995.8107	-0.000525
996.0534	0.001293
996.2961	-0.000525
996.5388	0.000680
996.7815	0.000405
997.0242	-0.000419
997.2670	0.000363
997.5097	0.000765
997.7524	0.000828
997.9952	0.001188
998.2379	-0.001307
998.4807	0.001251
998.7235	0.000004
998.9662	0.000342
999.2090	0.000913
999.4518	0.000109
999.6946	0.000278
999.9374	-0.001709
1000.1802	-0.000884
1000.4230	-0.000927
1000.6659	-0.001011
1000.9087	-0.002090
1001.1515	0.000300
1001.3944	0.000004
1001.6372	0.001166
1001.8801	-0.000292
1002.1230	0.000278
1002.3658	-0.000462
1002.6087	0.001674
1002.8516	0.001272
1003.0945	0.000553
1003.3374	-0.000504
1003.5803	-0.000694
1003.8232	-0.000335
1004.0661	0.000870
1004.3091	-0.000102
1004.5520	0.001357
1004.7949	0.000934
1005.0379	-0.000884
1005.2808	-0.000377
1005.5238	0.000448
1005.7667	0.000553
1006.0097	0.001314
1006.2527	0.000870
1006.4957	0.001145
1006.7387	0.000342
1006.9817	-0.000398
1007.2247	0.001568
1007.4677	0.000722
1007.7107	0.001103
1007.9538	0.000722
1008.1968	0.000490
1008.4398	0.000342
1008.6829	-0.000863
1008.9259	0.000744
1009.1690	0.000025
1009.4121	-0.001371
1009.6551	-0.000060
1009.8982	0.000807
1010.1413	-0.000504
1010.3844	-0.000335
1010.6275	-0.000081
1010.8706	0.000130
1011.1137	-0.000863
1011.3568	0.002498
1011.6000	0.000278
1011.8431	-0.001307
1012.0863	-0.000018
1012.3294	-0.000123
1012.5726	0.001314
1012.8157	-0.000187
1013.0589	0.001230
1013.3021	0.000490
1013.5452	0.000236
1013.7884	0.000405
1014.0316	-0.001540
1014.2748	0.000321
1014.5180	0.000342
1014.7613	0.000765
1015.0045	0.000046
1015.2477	-0.000081
1015.4909	-0.000525
1015.7342	0.000553
1015.9774	-0.000081
1016.2207	0.000680
1016.4640	-0.001223
1016.7072	0.001462
1016.9505	0.000278
1017.1938	0.001864
1017.4371	0.001336
1017.6804	0.000596
1017.9237	0.000553
1018.1670	0.000469
1018.4103	0.000025
1018.6536	0.000553
1018.8969	0.001061
1019.1403	0.001166
1019.3836	0.000490
1019.6270	0.000722
1019.8703	-0.001054
1020.1137	0.001336
1020.3571	-0.000208
1020.6004	-0.000314
1020.8438	-0.000208
1021.0872	0.001082
1021.3306	0.000828
1021.5740	-0.000292
1021.8174	-0.003654
1022.0608	-0.003168
1022.3042	-0.002872
1022.5477	-0.001498
1022.7911	-0.002766
1023.0345	-0.003358
