# Wavelength (nm)	Intensity (a.u.)
197.7802	0.001320
197.9842	0.000729
198.1882	-0.000536
198.3922	-0.000810
198.5963	0.000624
198.8003	-0.000367
199.0044	0.001025
199.2085	0.000983
199.4126	0.000139
199.6168	0.000160
199.8209	-0.001380
200.0251	0.000371
200.2292	0.001404
200.4334	0.000223
200.6376	-0.000051
200.8418	-0.000199
201.0461	0.000413
201.2503	-0.000473
201.4546	0.000265
201.6589	0.000181
201.8631	0.000645
202.0674	0.000329
202.2718	0.001552
202.4761	0.000835
202.6805	0.000287
202.8848	-0.001085
203.0892	0.000814
203.2936	0.000308
203.4980	0.001320
203.7024	0.000898
203.9069	0.000434
204.1113	0.000012
204.3158	0.001109
204.5203	-0.000663
204.7248	-0.000494
204.9293	0.000983
205.1338	0.001046
205.3384	-0.001000
205.5430	0.000497
205.7475	0.000961
205.9521	0.000413
206.1567	-0.000093
206.3614	0.001151
206.5660	0.001088
206.7706	0.001552
206.9753	0.000054
207.1800	0.001046
207.3847	0.000751
207.5894	-0.000705
207.7941	0.000139
207.9989	0.000012
208.2036	0.000076
208.4084	0.000434
208.6132	0.000983
208.8180	0.000455
209.0228	-0.001422
209.2276	0.000160
209.4325	-0.000114
209.6373	0.000666
209.8422	0.000772
210.0471	0.000983
210.2520	-0.001000
210.4569	0.001468
210.6618	0.001447
210.8668	-0.000705
211.0718	0.000751
211.2767	0.001911
211.4817	0.000561
211.6867	0.000012
211.8918	-0.001042
212.0968	0.001489
212.3018	0.000287
212.5069	-0.000072
212.7120	-0.000114
212.9171	0.000708
213.1222	0.000497
213.3273	0.000244
213.5325	0.000202
213.7376	0.001531
213.9428	0.001531
214.1480	0.000350
214.3532	0.000708
214.5584	-0.000093
214.7636	0.000729
214.9689	0.000835
215.1741	-0.000852
215.3794	0.000772
215.5847	0.000308
215.7900	0.001236
215.9953	0.000793
216.2007	0.000476
216.4060	0.000645
216.6114	0.000835
216.8168	0.000835
217.0222	-0.000578
217.2276	0.000413
217.4330	0.000434
217.6384	0.001025
217.8439	0.000645
218.0494	-0.000515
218.2548	0.000265
218.4603	0.001151
218.6659	-0.000642
218.8714	0.000603
219.0769	0.000835
219.2825	-0.000093
219.4881	0.000308
219.6936	0.000244
219.8992	-0.000325
220.1049	-0.000684
220.3105	0.000898
220.5161	0.000118
220.7218	0.001088
220.9275	0.001088
221.1332	0.001046
221.3389	0.001489
221.5446	0.000076
221.7503	-0.000916
221.9561	0.001109
222.1618	0.000434
222.3676	-0.000199
222.5734	0.000329
222.7792	0.000202
222.9850	0.000983
223.1909	0.001784
223.3967	0.000519
223.6026	0.000940
223.8085	0.001721
224.0144	0.001067
224.2203	0.000413
224.4262	0.001004
224.6322	-0.001738
224.8381	0.000983
225.0441	0.000961
225.2501	-0.000852
225.4561	-0.000536
225.6621	0.001847
225.8681	-0.000494
226.0742	-0.000937
226.2802	0.000392
226.4863	-0.000262
226.6924	-0.000009
226.8985	0.000054
227.1046	-0.001148
227.3107	0.001172
227.5169	0.001974
227.7230	0.001088
227.9292	0.000708
228.1354	0.001046
228.3416	0.000392
228.5478	0.002417
228.7541	-0.000051
228.9603	0.001636
229.1666	0.000455
229.3729	-0.000367
229.5791	0.000835
229.7855	0.001215
229.9918	-0.001169
230.1981	0.001573
230.4045	-0.000030
230.6108	0.000729
230.8172	0.001109
231.0236	-0.000072
231.2300	0.000371
231.4364	0.000097
231.6429	-0.000093
231.8493	0.000835
232.0558	0.000244
232.2623	0.000666
232.4688	0.000645
232.6753	0.001468
232.8818	-0.000114
233.0884	-0.000325
233.2949	0.000793
233.5015	0.000392
233.7081	-0.000599
233.9147	0.001341
234.1213	-0.000684
234.3279	0.001088
234.5346	-0.000156
234.7413	0.000645
234.9479	0.000097
235.1546	0.000413
235.3613	0.000054
235.5680	0.001805
235.7748	0.000666
235.9815	0.001046
236.1883	0.000666
236.3951	0.002902
236.6018	-0.000789
236.8087	0.000139
237.0155	0.000856
237.2223	0.001805
237.4292	0.000012
237.6360	0.000751
237.8429	-0.000388
238.0498	0.000940
238.2567	0.000118
238.4636	-0.000388
238.6706	-0.000030
238.8775	0.000645
239.0845	0.000856
239.2915	-0.000009
239.4985	-0.000093
239.7055	-0.000642
239.9125	0.000371
240.1195	0.002333
240.3266	0.001911
240.5337	0.000202
240.7407	0.000772
240.9478	0.000666
241.1549	0.001911
241.3621	-0.000325
241.5692	-0.000557
241.7764	0.000519
241.9835	0.001004
242.1907	0.000181
242.3979	0.000708
242.6051	0.000645
242.8124	0.001299
243.0196	0.000244
243.2269	0.001172
243.4341	-0.000114
243.6414	-0.000030
243.8487	0.002417
244.0560	0.000012
244.2634	0.001826
244.4707	0.000434
244.6781	0.001299
244.8854	0.000202
245.0928	0.001383
245.3002	-0.000304
245.5076	0.000497
245.7151	0.001151
245.9225	0.000118
246.1300	0.000751
246.3375	0.001046
246.5449	0.000413
246.7524	0.000118
246.9600	-0.000557
247.1675	0.001193
247.3750	0.000434
247.5826	0.001700
247.7902	-0.000262
247.9978	0.002100
248.2054	-0.000578
248.4130	0.000476
248.6206	0.000054
248.8283	0.000097
249.0359	0.000751
249.2436	0.000645
249.4513	0.000371
249.6590	0.000181
249.8667	0.001784
250.0745	0.000413
250.2822	0.000287
250.4900	0.001552
250.6978	0.000729
250.9056	-0.001042
251.1134	0.001341
251.3212	0.000793
251.5290	0.001447
251.7369	-0.000346
251.9447	0.001046
252.1526	-0.000156
252.3605	-0.000220
252.5684	0.002143
252.7763	0.001594
252.9843	0.000497
253.1922	0.001404
253.4002	-0.000599
253.6082	0.000287
253.8162	0.001067
254.0242	0.000076
254.2322	0.000814
254.4402	-0.001085
254.6483	0.000033
254.8564	-0.000262
255.0644	0.000350
255.2725	0.000729
255.4806	0.001573
255.6888	0.000434
255.8969	0.000772
256.1051	0.000033
256.3132	0.000350
256.5214	0.001236
256.7296	0.001362
256.9378	0.000919
257.1460	0.001067
257.3543	0.000329
257.5625	0.000772
257.7708	0.000729
257.9791	0.001510
258.1874	-0.000199
258.3957	0.000603
258.6040	-0.001000
258.8124	0.000729
259.0207	0.000983
259.2291	0.000097
259.4375	-0.000578
259.6459	-0.000030
259.8543	0.000751
260.0627	0.002206
260.2711	0.000202
260.4796	0.000413
260.6881	0.000371
260.8965	0.001594
261.1050	0.000392
261.3135	0.000877
261.5221	0.000645
261.7306	0.000097
261.9392	-0.000030
262.1477	-0.000009
262.3563	-0.000030
262.5649	-0.000178
262.7735	-0.000262
262.9822	-0.000726
263.1908	-0.000220
263.3995	0.001067
263.6081	-0.000367
263.8168	0.000793
264.0255	0.000666
264.2342	0.001489
264.4429	0.000054
264.6517	0.000244
264.8604	0.000645
265.0692	-0.000114
265.2780	0.001721
265.4868	0.001341
265.6956	0.000582
265.9044	0.000540
266.1133	-0.000304
266.3221	0.000687
266.5310	-0.000072
266.7399	0.000118
266.9488	0.000202
267.1577	0.002185
267.3666	0.000118
267.5755	0.000202
267.7845	0.001953
267.9935	0.001236
268.2024	0.000012
268.4114	0.000202
268.6205	0.000265
268.8295	0.001468
269.0385	0.000371
269.2476	-0.000030
269.4566	-0.000114
269.6657	0.000856
269.8748	-0.000178
270.0839	0.001805
270.2931	-0.000030
270.5022	0.000392
270.7114	-0.000030
270.9205	0.000160
271.1297	0.000118
271.3389	0.002058
271.5481	0.000287
271.7573	0.000160
271.9666	0.001383
272.1758	0.000497
272.3851	-0.000220
272.5944	0.000603
272.8037	-0.000346
273.0130	0.000476
273.2223	-0.000388
273.4316	0.000012
273.6410	0.000097
273.8504	0.000729
274.0597	0.001236
274.2691	0.000350
274.4785	-0.000051
274.6880	0.001868
274.8974	-0.000642
275.1069	0.000624
275.3163	0.000476
275.5258	0.000603
275.7353	0.000076
275.9448	0.001510
276.1543	0.000329
276.3639	0.000434
276.5734	0.002227
276.7830	0.001130
276.9926	-0.000304
277.2022	0.000540
277.4118	0.000666
277.6214	-0.000663
277.8310	0.000392
278.0407	-0.000431
278.2503	0.001763
278.4600	-0.000705
278.6697	-0.000705
278.8794	0.000350
279.0891	-0.000178
279.2989	0.000940
279.5086	0.001299
279.7184	0.001552
279.9281	0.000434
280.1379	0.000181
280.3477	0.000983
280.5576	-0.001021
280.7674	0.000772
280.9772	0.000519
281.1871	0.001193
281.3970	-0.000663
281.6069	0.002037
281.8168	-0.000346
282.0267	0.000434
282.2366	0.000961
282.4466	0.001362
282.6565	0.000793
282.8665	-0.000114
283.0765	0.000097
283.2865	0.000497
283.4965	0.000645
283.7065	0.001236
283.9166	0.001025
284.1266	-0.000410
284.3367	0.000160
284.5468	-0.001338
284.7569	0.000877
284.9670	0.000519
285.1771	0.002311
285.3873	0.001320
285.5974	-0.000304
285.8076	0.000961
286.0178	0.000287
286.2280	-0.001338
286.4382	-0.000663
286.6484	0.000708
286.8587	0.000012
287.0689	0.000729
287.2792	0.001805
287.4895	0.000181
287.6998	-0.000578
287.9101	0.000181
288.1204	-0.000051
288.3308	-0.000726
288.5411	-0.000051
288.7515	0.000476
288.9619	0.001299
289.1723	0.000033
289.3827	-0.000325
289.5931	0.000729
289.8035	0.000287
290.0140	-0.000410
290.2245	0.000835
290.4349	0.000181
290.6454	0.001130
290.8559	0.000687
291.0665	0.001426
291.2770	0.000708
291.4875	0.001130
291.6981	-0.000072
291.9087	0.001763
292.1193	-0.000452
292.3299	0.000434
292.5405	0.001320
292.7511	-0.000114
292.9618	0.000772
293.1724	-0.000262
293.3831	-0.000156
293.5938	0.000308
293.8045	0.000202
294.0152	-0.000114
294.2260	0.001531
294.4367	0.000751
294.6475	-0.000663
294.8582	0.000497
295.0690	-0.000452
295.2798	0.001320
295.4906	0.000708
295.7015	0.002037
295.9123	-0.000810
296.1232	0.000624
296.3340	-0.000304
296.5449	0.001890
296.7558	0.000033
296.9667	0.001868
297.1777	0.000371
297.3886	0.001088
297.5995	0.000202
297.8105	0.002185
298.0215	0.000666
298.2325	0.000898
298.4435	0.000476
298.6545	0.000772
298.8656	-0.000030
299.0766	0.001109
299.2877	0.001257
299.4988	0.001193
299.7099	-0.000156
299.9210	0.000835
300.1321	0.000350
300.3432	0.000772
300.5544	-0.000156
300.7655	0.001552
300.9767	0.001172
301.1879	0.001257
301.3991	0.000434
301.6103	0.000751
301.8215	0.000814
302.0328	0.001426
302.2441	0.001552
302.4553	0.001658
302.6666	-0.000030
302.8779	0.000097
303.0892	0.000729
303.3006	0.000076
303.5119	0.000350
303.7233	0.001067
303.9346	0.000244
304.1460	0.000729
304.3574	0.000835
304.5688	0.000983
304.7803	0.000624
304.9917	0.000434
305.2031	0.000940
305.4146	0.000729
305.6261	0.000624
305.8376	0.000160
306.0491	0.001636
306.2606	0.000561
306.4722	0.000919
306.6837	0.000772
306.8953	0.000076
307.1069	0.000181
307.3184	-0.000747
307.5301	0.001573
307.7417	0.000856
307.9533	0.000898
308.1650	-0.000642
308.3766	0.000751
308.5883	-0.000410
308.8000	-0.000684
309.0117	-0.000178
309.2234	0.001299
309.4351	-0.000178
309.6469	0.001573
309.8586	0.002122
310.0704	0.001805
310.2822	-0.000030
310.4940	-0.000367
310.7058	0.000856
310.9176	-0.000135
311.1295	0.000012
311.3413	0.001172
311.5532	0.000898
311.7651	-0.001127
311.9770	0.000455
312.1889	0.000118
312.4008	0.000687
312.6127	0.000287
312.8247	0.000371
313.0366	0.000097
313.2486	-0.000030
313.4606	0.001130
313.6726	-0.000220
313.8846	0.000919
314.0967	0.000666
314.3087	0.000118
314.5208	0.000371
314.7328	0.001025
314.9449	0.000012
315.1570	0.000012
315.3692	0.000308
315.5813	0.000329
315.7934	0.001172
316.0056	0.001236
316.2177	0.000603
316.4299	0.000983
316.6421	-0.000199
316.8543	0.001784
317.0666	0.000455
317.2788	0.001067
317.4911	0.000624
317.7033	0.000793
317.9156	-0.000663
318.1279	0.001953
318.3402	0.000835
318.5525	0.000476
318.7649	0.000687
318.9772	0.000983
319.1896	0.000139
319.4019	0.001742
319.6143	0.000287
319.8267	0.000898
320.0392	0.001193
320.2516	-0.000030
320.4640	0.000076
320.6765	0.000940
320.8890	0.000687
321.1014	0.000983
321.3139	0.000160
321.5265	0.001004
321.7390	-0.000009
321.9515	0.000455
322.1641	0.000666
322.3766	0.000624
322.5892	-0.001253
322.8018	0.001763
323.0144	-0.000135
323.2270	-0.000768
323.4397	-0.000030
323.6523	0.000603
323.8650	0.000033
324.0777	0.000350
324.2904	0.000350
324.5031	0.001489
324.7158	0.000898
324.9285	0.000097
325.1412	0.001784
325.3540	0.001320
325.5668	-0.001042
325.7796	-0.000220
325.9924	0.000371
326.2052	0.000729
326.4180	0.000160
326.6308	-0.000072
326.8437	0.000624
327.0566	-0.000346
327.2694	0.000054
327.4823	0.002206
327.6952	0.002248
327.9082	0.001130
328.1211	-0.000789
328.3340	0.001067
328.5470	0.000540
328.7600	-0.000114
328.9730	-0.000578
329.1860	0.000751
329.3990	-0.000051
329.6120	0.000054
329.8251	-0.001000
330.0381	0.002480
330.2512	0.000118
330.4643	0.000033
330.6774	0.001383
330.8905	-0.001042
331.1036	-0.000705
331.3167	0.000687
331.5299	0.001826
331.7431	0.001489
331.9562	0.000772
332.1694	0.000793
332.3826	0.000265
332.5959	0.002185
332.8091	-0.000072
333.0223	-0.000367
333.2356	0.001215
333.4489	0.000413
333.6622	-0.000114
333.8755	0.000181
334.0888	-0.000726
334.3021	0.000645
334.5154	0.000202
334.7288	0.001004
334.9422	0.000983
335.1555	-0.000937
335.3689	0.000181
335.5823	0.001172
335.7958	-0.000114
336.0092	0.000708
336.2227	0.000244
336.4361	0.000919
336.6496	0.000202
336.8631	0.000540
337.0766	0.001447
337.2901	0.000540
337.5036	0.000202
337.7172	0.000118
337.9307	0.000265
338.1443	0.000919
338.3579	0.001130
338.5715	0.000329
338.7851	0.001215
338.9987	0.001362
339.2124	-0.000178
339.4260	0.000856
339.6397	-0.000515
339.8533	0.001404
340.0670	-0.000325
340.2807	0.000392
340.4945	0.001109
340.7082	-0.000030
340.9219	0.000265
341.1357	0.000476
341.3495	-0.000388
341.5633	0.000287
341.7771	0.000624
341.9909	-0.000199
342.2047	-0.000494
342.4185	0.000350
342.6324	-0.001612
342.8463	0.001320
343.0601	0.000392
343.2740	0.000118
343.4879	0.000265
343.7019	0.000308
343.9158	0.000118
344.1297	-0.000030
344.3437	0.001573
344.5577	0.001489
344.7717	0.000814
344.9857	0.000898
345.1997	0.000392
345.4137	0.002396
345.6277	-0.000388
345.8418	0.000687
346.0559	0.000371
346.2699	-0.000663
346.4840	0.000223
346.6981	0.001426
346.9123	-0.000852
347.1264	0.000814
347.3406	0.000265
347.5547	0.001383
347.7689	-0.000810
347.9831	0.000497
348.1973	0.001341
348.4115	0.000265
348.6257	0.001531
348.8400	0.001721
349.0542	0.000519
349.2685	-0.000304
349.4828	-0.000199
349.6971	0.000666
349.9114	0.000181
350.1257	0.000645
350.3400	-0.000515
350.5544	0.000793
350.7687	0.000476
350.9831	0.001615
351.1975	-0.000726
351.4119	-0.000220
351.6263	0.000181
351.8407	0.001067
352.0552	-0.000220
352.2696	0.000287
352.4841	-0.000030
352.6986	0.000751
352.9131	-0.000494
353.1276	-0.000114
353.3421	-0.001148
353.5566	0.001426
353.7712	0.000476
353.9858	0.000097
354.2003	0.001658
354.4149	0.000729
354.6295	0.000434
354.8441	0.001299
355.0588	-0.000916
355.2734	0.001320
355.4881	-0.000135
355.7027	0.000329
355.9174	0.000751
356.1321	0.001826
356.3468	-0.000114
356.5615	0.001193
356.7763	-0.000135
356.9910	0.000961
357.2058	0.001742
357.4206	0.001721
357.6353	0.000856
357.8501	-0.000431
358.0650	-0.000410
358.2798	0.002037
358.4946	0.000624
358.7095	0.000708
358.9243	-0.000599
359.1392	-0.000030
359.3541	0.000519
359.5690	0.000835
359.7839	0.000392
359.9989	0.000666
360.2138	0.000455
360.4288	0.000223
360.6438	-0.000093
360.8587	0.000540
361.0737	0.000455
361.2888	-0.000241
361.5038	0.000244
361.7188	0.001531
361.9339	0.000708
362.1489	0.001172
362.3640	0.000434
362.5791	-0.000726
362.7942	-0.001000
363.0093	0.000751
363.2245	0.001299
363.4396	0.000983
363.6548	-0.001422
363.8699	-0.000009
364.0851	0.000202
364.3003	0.001615
364.5155	0.001594
364.7308	-0.001021
364.9460	-0.000916
365.1612	-0.000620
365.3765	0.001299
365.5918	-0.000325
365.8071	-0.000114
366.0224	0.001784
366.2377	0.000265
366.4530	0.000772
366.6684	-0.000388
366.8837	0.000898
367.0991	-0.000262
367.3145	0.000223
367.5299	0.000729
367.7453	0.002396
367.9607	0.000645
368.1761	0.000603
368.3916	0.000645
368.6070	0.000329
368.8225	0.001383
369.0380	0.001362
369.2535	-0.000663
369.4690	0.001636
369.6845	-0.001063
369.9001	0.000413
370.1156	0.001362
370.3312	-0.000410
370.5468	0.000371
370.7624	0.001109
370.9780	0.000265
371.1936	0.000097
371.4092	-0.000283
371.6249	0.002037
371.8405	0.001362
372.0562	0.001320
372.2719	-0.001422
372.4876	0.001383
372.7033	0.000540
372.9190	0.001636
373.1348	-0.000325
373.3505	0.001025
373.5663	-0.000578
373.7820	-0.000557
373.9978	0.000476
374.2136	0.001236
374.4294	0.000561
374.6453	-0.000768
374.8611	0.000497
375.0770	0.001299
375.2928	0.000940
375.5087	0.000033
375.7246	0.000624
375.9405	0.000350
376.1564	0.000033
376.3724	0.000624
376.5883	0.000877
376.8043	0.000244
377.0203	-0.000367
377.2362	0.000244
377.4522	0.001426
377.6682	0.000793
377.8843	0.001046
378.1003	-0.000009
378.3164	-0.000009
378.5324	-0.000220
378.7485	0.000308
378.9646	0.001151
379.1807	0.000561
379.3968	0.001130
379.6129	0.000392
379.8291	0.001067
380.0452	0.000497
380.2614	-0.000030
380.4776	0.001004
380.6938	0.001320
380.9100	-0.000747
381.1262	0.000898
381.3424	0.000434
381.5587	0.001721
381.7749	0.000729
381.9912	0.000244
382.2075	0.000582
382.4238	-0.000241
382.6401	0.000519
382.8564	-0.001106
383.0728	0.000708
383.2891	-0.000410
383.5055	0.000181
383.7219	0.000413
383.9382	0.000772
384.1546	0.000540
384.3711	0.000392
384.5875	0.000519
384.8039	0.000160
385.0204	0.000582
385.2368	0.000729
385.4533	0.001468
385.6698	0.001088
385.8863	0.000772
386.1028	0.000919
386.3194	0.001531
386.5359	-0.001148
386.7525	-0.000367
386.9690	-0.000473
387.1856	0.000772
387.4022	0.001172
387.6188	0.001890
387.8355	-0.000578
388.0521	0.001025
388.2687	0.001489
388.4854	0.000308
388.7021	0.000687
388.9188	0.001067
389.1355	0.000582
389.3522	0.000371
389.5689	-0.000831
389.7856	0.000223
390.0024	0.000582
390.2192	0.000287
390.4359	0.000877
390.6527	0.000645
390.8695	0.001826
391.0863	0.001868
391.3032	0.001447
391.5200	0.003092
391.7369	0.000603
391.9537	0.001510
392.1706	0.001341
392.3875	0.002248
392.6044	0.000793
392.8213	0.003640
393.0383	0.000455
393.2552	0.000898
393.4722	0.002459
393.6891	0.002037
393.9061	0.000751
394.1231	0.002923
394.3401	0.002122
394.5572	0.003071
394.7742	0.002881
394.9912	0.002396
395.2083	0.001847
395.4254	0.001700
395.6425	0.001805
395.8596	0.002501
396.0767	0.002691
396.2938	0.002923
396.5109	0.001890
396.7281	0.002396
396.9453	0.002037
397.1624	0.002818
397.3796	0.003830
397.5968	0.002607
397.8140	0.002775
398.0313	0.004315
398.2485	0.002712
398.4658	0.003197
398.6830	0.001341
398.9003	0.003387
399.1176	0.004357
399.3349	0.003176
399.5522	0.002754
399.7696	0.004505
399.9869	0.003113
400.2043	0.003577
400.4216	0.003155
400.6390	0.003134
400.8564	0.003261
401.0738	0.004379
401.2912	0.003514
401.5087	0.004779
401.7261	0.003514
401.9436	0.003387
402.1610	0.003493
402.3785	0.004146
402.5960	0.003957
402.8135	0.004632
403.0310	0.003936
403.2486	0.006319
403.4661	0.003893
403.6837	0.004906
403.9013	0.005159
404.1189	0.006150
404.3365	0.005602
404.5541	0.004653
404.7717	0.007564
404.9893	0.005243
405.2070	0.006108
405.4246	0.005918
405.6423	0.005518
405.8600	0.008576
406.0777	0.005518
406.2954	0.005644
406.5131	0.006214
406.7309	0.006171
406.9486	0.004821
407.1664	0.005264
407.3842	0.006783
407.6020	0.007374
407.8198	0.007774
408.0376	0.006340
408.2554	0.008112
408.4733	0.006678
408.6911	0.007859
408.9090	0.006804
409.1269	0.007226
409.3448	0.007184
409.5627	0.008386
409.7806	0.009230
409.9985	0.008133
410.2165	0.007310
410.4344	0.006024
410.6524	0.007479
410.8704	0.007416
411.0884	0.008323
411.3064	0.008238
411.5244	0.007817
411.7424	0.009968
411.9605	0.006635
412.1785	0.009631
412.3966	0.007099
412.6147	0.009525
412.8328	0.008681
413.0509	0.010306
413.2690	0.009082
413.4871	0.009399
413.7053	0.010263
413.9234	0.010137
414.1416	0.006614
414.3598	0.009441
414.5780	0.009420
414.7962	0.011360
415.0144	0.009082
415.2326	0.010474
415.4509	0.009462
415.6692	0.009567
415.8874	0.008745
416.1057	0.010348
416.3240	0.008808
416.5423	0.010158
416.7606	0.011360
416.9790	0.010116
417.1973	0.010981
417.4157	0.010538
417.6341	0.010327
417.8524	0.011360
418.0708	0.008787
418.2893	0.011318
418.5077	0.011065
418.7261	0.010559
418.9446	0.011213
419.1630	0.009673
419.3815	0.011149
419.6000	0.011402
419.8185	0.010538
420.0370	0.012710
420.2555	0.012668
420.4741	0.013765
420.6926	0.013469
420.9112	0.013638
421.1298	0.012246
421.3483	0.015073
421.5669	0.013174
421.7856	0.015642
422.0042	0.014461
422.2228	0.015115
422.4415	0.013132
422.6601	0.013259
422.8788	0.013807
423.0975	0.015621
423.3162	0.015452
423.5349	0.015811
423.7536	0.012457
423.9724	0.014398
424.1911	0.014482
424.4099	0.015958
424.6287	0.015262
424.8475	0.016296
425.0663	0.013596
425.2851	0.013554
425.5039	0.015937
425.7228	0.015980
425.9416	0.014693
426.1605	0.014524
426.3793	0.013934
426.5982	0.013870
426.8171	0.012710
427.0361	0.012837
427.2550	0.014925
427.4739	0.015347
427.6929	0.014566
427.9118	0.015916
428.1308	0.014229
428.3498	0.013469
428.5688	0.013828
428.7878	0.014904
429.0068	0.015305
429.2259	0.014883
429.4449	0.015663
429.6640	0.018532
429.8831	0.015705
430.1022	0.019186
430.3213	0.017076
430.5404	0.017456
430.7595	0.016085
430.9787	0.017477
431.1978	0.016022
431.4170	0.017519
431.6362	0.015157
431.8553	0.016127
432.0745	0.014609
432.2938	0.014503
432.5130	0.014693
432.7322	0.016992
432.9515	0.015178
433.1707	0.013870
433.3900	0.015663
433.6093	0.016760
433.8286	0.019270
434.0479	0.019122
434.2673	0.016887
434.4866	0.015748
434.7059	0.015980
434.9253	0.016950
435.1447	0.014883
435.3641	0.017329
435.5835	0.016212
435.8029	0.014967
436.0223	0.015073
436.2418	0.016296
436.4612	0.017308
436.6807	0.018300
436.9001	0.015115
437.1196	0.017688
437.3391	0.016802
437.5586	0.016401
437.7782	0.017857
437.9977	0.018004
438.2173	0.016823
438.4368	0.018047
438.6564	0.017224
438.8760	0.016844
439.0956	0.018384
439.3152	0.017878
439.5348	0.016169
439.7545	0.016422
439.9741	0.018595
440.1938	0.017308
440.4135	0.018194
440.6331	0.018405
440.8528	0.017540
441.0725	0.019966
441.2923	0.019945
441.5120	0.021991
441.7318	0.020936
441.9515	0.021358
442.1713	0.020620
442.3911	0.020198
442.6109	0.018574
442.8307	0.019207
443.0505	0.018447
443.2703	0.020957
443.4902	0.022328
443.7101	0.019776
443.9299	0.020219
444.1498	0.018869
444.3697	0.019629
444.5896	0.019671
444.8095	0.018068
445.0295	0.018869
445.2494	0.016444
445.4694	0.020557
445.6894	0.019565
445.9093	0.019186
446.1293	0.017794
446.3493	0.020282
446.5694	0.019692
446.7894	0.020177
447.0094	0.020198
447.2295	0.017730
447.4496	0.019481
447.6696	0.019101
447.8897	0.020135
448.1098	0.018342
448.3300	0.015958
448.5501	0.017941
448.7702	0.017625
448.9904	0.018679
449.2106	0.017646
449.4307	0.020029
449.6509	0.017456
449.8711	0.017308
450.0914	0.016676
450.3116	0.016887
450.5318	0.015326
450.7521	0.015452
450.9724	0.015094
451.1926	0.017414
451.4129	0.015558
451.6332	0.016064
451.8535	0.015790
452.0739	0.016570
452.2942	0.015684
452.5146	0.018679
452.7349	0.015642
452.9553	0.014630
453.1757	0.015473
453.3961	0.015579
453.6165	0.012499
453.8369	0.016275
454.0574	0.014946
454.2778	0.014187
454.4983	0.013512
454.7188	0.015452
454.9393	0.013849
455.1597	0.015537
455.3803	0.015452
455.6008	0.015600
455.8213	0.014355
456.0419	0.014946
456.2624	0.012837
456.4830	0.013638
456.7036	0.013638
456.9242	0.014398
457.1448	0.013343
457.3654	0.013469
457.5860	0.013216
457.8067	0.012942
458.0274	0.015305
458.2480	0.013934
458.4687	0.014102
458.6894	0.014693
458.9101	0.013280
459.1308	0.015684
459.3516	0.013596
459.5723	0.013153
459.7931	0.013343
460.0138	0.014334
460.2346	0.014208
460.4554	0.012563
460.6762	0.013955
460.8970	0.012520
461.1178	0.014229
461.3387	0.013912
461.5595	0.014545
461.7804	0.013364
462.0013	0.011297
462.2222	0.012415
462.4431	0.010348
462.6640	0.011634
462.8849	0.011445
463.1059	0.012309
463.3268	0.012183
463.5478	0.011845
463.7687	0.011719
463.9897	0.010052
464.2107	0.011508
464.4317	0.011930
464.6528	0.011445
464.8738	0.012499
465.0948	0.012141
465.3159	0.011993
465.5370	0.013934
465.7581	0.011824
465.9792	0.011930
466.2003	0.012752
466.4214	0.011529
466.6425	0.010306
466.8637	0.010643
467.0848	0.009588
467.3060	0.010158
467.5272	0.010981
467.7484	0.008829
467.9696	0.007964
468.1908	0.009820
468.4120	0.010770
468.6333	0.009462
468.8545	0.007289
469.0758	0.008576
469.2970	0.008281
469.5183	0.007922
469.7396	0.007331
469.9610	0.005602
470.1823	0.007880
470.4036	0.006572
470.6250	0.008302
470.8463	0.008681
471.0677	0.007416
471.2891	0.007078
471.5105	0.007268
471.7319	0.007753
471.9533	0.006678
472.1748	0.007268
472.3962	0.007395
472.6177	0.007015
472.8391	0.006235
473.0606	0.007205
473.2821	0.007099
473.5036	0.007310
473.7251	0.006846
473.9467	0.007458
474.1682	0.006530
474.3898	0.005750
474.6113	0.007374
474.8329	0.005623
475.0545	0.006572
475.2761	0.007774
475.4977	0.007353
475.7193	0.007585
475.9410	0.005560
476.1626	0.006087
476.3843	0.006699
476.6060	0.007226
476.8277	0.006425
477.0494	0.008112
477.2711	0.006129
477.4928	0.005518
477.7145	0.007015
477.9363	0.005665
478.1580	0.006467
478.3798	0.006657
478.6016	0.006087
478.8234	0.005159
479.0452	0.006298
479.2670	0.007078
479.4888	0.004674
479.7107	0.004547
479.9325	0.005918
480.1544	0.005665
480.3763	0.005138
480.5982	0.005096
480.8201	0.005918
481.0420	0.005960
481.2639	0.005707
481.4859	0.004821
481.7078	0.005939
481.9298	0.005876
482.1517	0.005939
482.3737	0.005433
482.5957	0.005285
482.8177	0.005370
483.0398	0.006277
483.2618	0.005855
483.4838	0.004315
483.7059	0.005855
483.9280	0.005180
484.1501	0.005623
484.3721	0.004948
484.5943	0.006319
484.8164	0.004463
485.0385	0.006214
485.2606	0.005454
485.4828	0.007964
485.7050	0.011571
485.9271	0.015853
486.1493	0.015726
486.3715	0.015832
486.5937	0.012120
486.8160	0.010453
487.0382	0.009040
487.2605	0.007585
487.4827	0.006340
487.7050	0.005918
487.9273	0.004505
488.1496	0.004252
488.3719	0.003893
488.5942	0.004421
488.8165	0.004589
489.0389	0.003851
489.2612	0.003767
489.4836	0.003535
489.7060	0.002501
489.9284	0.004421
490.1508	0.004146
490.3732	0.003176
490.5956	0.004231
490.8180	0.002881
491.0405	0.004821
491.2630	0.003472
491.4854	0.002902
491.7079	0.004231
491.9304	0.005349
492.1529	0.003851
492.3755	0.002016
492.5980	0.004210
492.8205	0.004315
493.0431	0.002965
493.2657	0.002965
493.4882	0.003577
493.7108	0.004484
493.9334	0.002649
494.1561	0.003050
494.3787	0.003957
494.6013	0.003050
494.8240	0.002501
495.0466	0.002775
495.2693	0.003493
495.4920	0.003029
495.7147	0.005011
495.9374	0.003176
496.1601	0.003725
496.3829	0.003893
496.6056	0.004083
496.8284	0.001573
497.0511	0.003577
497.2739	0.002417
497.4967	0.002396
497.7195	0.003746
497.9423	0.002185
498.1652	0.003661
498.3880	0.002860
498.6109	0.001383
498.8337	0.003957
499.0566	0.002586
499.2795	0.004568
499.5024	0.002986
499.7253	0.002480
499.9482	0.003619
500.1712	0.001742
500.3941	0.003261
500.6171	0.002311
500.8400	0.003197
501.0630	0.002775
501.2860	0.003092
501.5090	0.003092
501.7320	0.000814
501.9551	0.005011
502.1781	0.002185
502.4012	0.004062
502.6242	0.003303
502.8473	0.002586
503.0704	0.003134
503.2935	0.002649
503.5166	0.003366
503.7397	0.003619
503.9628	0.002565
504.1860	0.003197
504.4092	0.002122
504.6323	0.002691
504.8555	0.003619
505.0787	0.002122
505.3019	0.003176
505.5251	0.004357
505.7483	0.001847
505.9716	0.001784
506.1948	0.002375
506.4181	0.003999
506.6414	0.003071
506.8647	0.002712
507.0880	0.000898
507.3113	0.001742
507.5346	0.002459
507.7579	0.003176
507.9813	0.002691
508.2046	0.003598
508.4280	0.001299
508.6514	0.001383
508.8748	0.001552
509.0982	0.002354
509.3216	0.002712
509.5450	0.003261
509.7685	0.003408
509.9919	0.003050
510.2154	0.004400
510.4388	0.003092
510.6623	0.001531
510.8858	0.003303
511.1093	0.000772
511.3329	0.003893
511.5564	0.001995
511.7799	0.002965
512.0035	0.002459
512.2270	0.002459
512.4506	0.002839
512.6742	0.002037
512.8978	0.002944
513.1214	0.002923
513.3451	0.001046
513.5687	0.002438
513.7923	0.002881
514.0160	0.002881
514.2397	0.001847
514.4634	0.003113
514.6871	0.002354
514.9108	0.003493
515.1345	0.001953
515.3582	0.002143
515.5819	0.003134
515.8057	0.003029
516.0295	0.001826
516.2532	0.003303
516.4770	0.001826
516.7008	0.001742
516.9246	0.002058
517.1485	0.005011
517.3723	0.001573
517.5961	0.003472
517.8200	0.002016
518.0439	0.002438
518.2677	0.002354
518.4916	0.001658
518.7155	0.002565
518.9395	0.003261
519.1634	0.003282
519.3873	0.003387
519.6113	0.002733
519.8352	0.002902
520.0592	0.002164
520.2832	0.002396
520.5072	0.002607
520.7312	0.002206
520.9552	0.003577
521.1792	0.002396
521.4033	0.003134
521.6273	0.003071
521.8514	0.001911
522.0755	0.001911
522.2996	0.002079
522.5237	0.001341
522.7478	0.003577
522.9719	0.004104
523.1960	0.002965
523.4202	0.002754
523.6443	0.003514
523.8685	0.003387
524.0927	0.003661
524.3169	0.003303
524.5411	0.002860
524.7653	0.002881
524.9895	0.003450
525.2138	0.004252
525.4380	0.004062
525.6623	0.003957
525.8865	0.004041
526.1108	0.002185
526.3351	0.001995
526.5594	0.003556
526.7837	0.003661
527.0081	0.003303
527.2324	0.004653
527.4568	0.001995
527.6811	0.003535
527.9055	0.002417
528.1299	0.003640
528.3543	0.003746
528.5787	0.004484
528.8031	0.004421
529.0276	0.004611
529.2520	0.003746
529.4765	0.004210
529.7009	0.004315
529.9254	0.003809
530.1499	0.003893
530.3744	0.004821
530.5989	0.004927
530.8234	0.005307
531.0480	0.005307
531.2725	0.003978
531.4971	0.004252
531.7217	0.003387
531.9462	0.004400
532.1708	0.005728
532.3954	0.004948
532.6200	0.005285
532.8447	0.004168
533.0693	0.005370
533.2940	0.004442
533.5186	0.004800
533.7433	0.007416
533.9680	0.004020
534.1927	0.006425
534.4174	0.006003
534.6421	0.005243
534.8668	0.007437
535.0916	0.006361
535.3163	0.007437
535.5411	0.005982
535.7659	0.006846
535.9907	0.008091
536.2155	0.005328
536.4403	0.005412
536.6651	0.006298
536.8899	0.007078
537.1148	0.005475
537.3396	0.005834
537.5645	0.008175
537.7894	0.006108
538.0143	0.006214
538.2392	0.007353
538.4641	0.008766
538.6890	0.006530
538.9139	0.008028
539.1389	0.007163
539.3638	0.007985
539.5888	0.008492
539.8138	0.009124
540.0388	0.007015
540.2638	0.007163
540.4888	0.007205
540.7138	0.008323
540.9389	0.008935
541.1639	0.008049
541.3890	0.009799
541.6140	0.009441
541.8391	0.008639
542.0642	0.010917
542.2893	0.009504
542.5144	0.010052
542.7396	0.011824
542.9647	0.011972
543.1899	0.011634
543.4150	0.010833
543.6402	0.010854
543.8654	0.011888
544.0906	0.011065
544.3158	0.011909
544.5410	0.011339
544.7662	0.012120
544.9915	0.013638
545.2167	0.012373
545.4420	0.011824
545.6673	0.009947
545.8926	0.010474
546.1179	0.012014
546.3432	0.010727
546.5685	0.012120
546.7938	0.012626
547.0192	0.014376
547.2445	0.011571
547.4699	0.013237
547.6953	0.014271
547.9206	0.014967
548.1460	0.014819
548.3715	0.016254
548.5969	0.015874
548.8223	0.015537
549.0478	0.014102
549.2732	0.015558
549.4987	0.013153
549.7242	0.014166
549.9496	0.014081
550.1751	0.013216
550.4007	0.014883
550.6262	0.012183
550.8517	0.014714
551.0773	0.015157
551.3028	0.013680
551.5284	0.014862
551.7540	0.014609
551.9796	0.015389
552.2052	0.017857
552.4308	0.019186
552.6564	0.017878
552.8820	0.018975
553.1077	0.018490
553.3333	0.019165
553.5590	0.016697
553.7847	0.018384
554.0104	0.019586
554.2361	0.019861
554.4618	0.016908
554.6875	0.016908
554.9132	0.017119
555.1390	0.019797
555.3648	0.018679
555.5905	0.019397
555.8163	0.020325
556.0421	0.021189
556.2679	0.021632
556.4937	0.021611
556.7195	0.020536
556.9454	0.019840
557.1712	0.021232
557.3971	0.019607
557.6230	0.021928
557.8488	0.021358
558.0747	0.020725
558.3006	0.019523
558.5266	0.020536
558.7525	0.018363
558.9784	0.019165
559.2044	0.019122
559.4303	0.020261
559.6563	0.021084
559.8823	0.020135
560.1083	0.021105
560.3343	0.022793
560.5603	0.025999
560.7863	0.025830
561.0124	0.025492
561.2384	0.029247
561.4645	0.027095
561.6905	0.025408
561.9166	0.026863
562.1427	0.026399
562.3688	0.026399
562.5949	0.026906
562.8211	0.025345
563.0472	0.024606
563.2733	0.026779
563.4995	0.026969
563.7257	0.026927
563.9519	0.028909
564.1781	0.030555
564.4043	0.029521
564.6305	0.029395
564.8567	0.031483
565.0829	0.031251
565.3092	0.032580
565.5355	0.031209
565.7617	0.028551
565.9880	0.032537
566.2143	0.031103
566.4406	0.032495
566.6669	0.032812
566.8932	0.032938
567.1196	0.035596
567.3459	0.041185
567.5723	0.043084
567.7987	0.045151
568.0250	0.043906
568.2514	0.047323
568.4778	0.047661
568.7043	0.050551
568.9307	0.053166
569.1571	0.056119
569.3836	0.061709
569.6100	0.066855
569.8365	0.073478
570.0630	0.078414
570.2895	0.081072
570.5160	0.084046
570.7425	0.082591
570.9690	0.087125
571.1956	0.095478
571.4221	0.096385
571.6487	0.099338
571.8752	0.102228
572.1018	0.107459
572.3284	0.107839
572.5550	0.101595
572.7816	0.093938
573.0082	0.089699
573.2349	0.100330
573.4615	0.109273
573.6882	0.112563
573.9149	0.121570
574.1415	0.124565
574.3682	0.132053
574.5949	0.136462
574.8216	0.134711
575.0484	0.134331
575.2751	0.139668
575.5018	0.140849
575.7286	0.129838
575.9554	0.124839
576.1821	0.122203
576.4089	0.127603
576.6357	0.130577
576.8626	0.144013
577.0894	0.142452
577.3162	0.147451
577.5431	0.154496
577.7699	0.164684
577.9968	0.193918
578.2237	0.186662
578.4505	0.176538
578.6774	0.166477
578.9044	0.158567
579.1313	0.148379
579.3582	0.151037
579.5851	0.157491
579.8121	0.160992
580.0391	0.160022
580.2660	0.158335
580.4930	0.161098
580.7200	0.152745
580.9470	0.156943
581.1741	0.187844
581.4011	0.232813
581.6281	0.253358
581.8552	0.253020
582.0822	0.247789
582.3093	0.241229
582.5364	0.227582
582.7635	0.206911
582.9906	0.190016
583.2177	0.176939
583.4449	0.164789
583.6720	0.153357
583.8991	0.145489
584.1263	0.154095
584.3535	0.154369
584.5807	0.157006
584.8079	0.166814
585.0351	0.175800
585.2623	0.186494
585.4895	0.188413
585.7167	0.183520
585.9440	0.178162
586.1713	0.170927
586.3985	0.160381
586.6258	0.152893
586.8531	0.156753
587.0804	0.167088
587.3077	0.177107
587.5350	0.180377
587.7624	0.179449
587.9897	0.171412
588.2171	0.162258
588.4445	0.157660
588.6718	0.156479
588.8992	0.145742
589.1266	0.141714
589.3540	0.133846
589.5815	0.128130
589.8089	0.125662
590.0363	0.125767
590.2638	0.120494
590.4913	0.122203
590.7187	0.112838
590.9462	0.108746
591.1737	0.105286
591.4012	0.101131
591.6288	0.103283
591.8563	0.102840
592.0838	0.098895
592.3114	0.103093
592.5389	0.122013
592.7665	0.146354
592.9941	0.157111
593.2217	0.161646
593.4493	0.157154
593.6769	0.159832
593.9046	0.154517
594.1322	0.142199
594.3598	0.136694
594.5875	0.135048
594.8152	0.144835
595.0429	0.156542
595.2705	0.156689
595.4983	0.151121
595.7260	0.145932
595.9537	0.134774
596.1814	0.133593
596.4092	0.120452
596.6369	0.112500
596.8647	0.110053
597.0925	0.115685
597.3203	0.119292
597.5481	0.119060
597.7759	0.117499
598.0037	0.117288
598.2315	0.107375
598.4594	0.112268
598.6872	0.123173
598.9151	0.142642
599.1430	0.148590
599.3709	0.146143
599.5988	0.142621
599.8267	0.137453
600.0546	0.143865
600.2825	0.148442
600.5105	0.148231
600.7384	0.143886
600.9664	0.148632
601.1944	0.153083
601.4223	0.145173
601.6503	0.140490
601.8783	0.134774
602.1064	0.134247
602.3344	0.130682
602.5624	0.134542
602.7905	0.137748
603.0185	0.136504
603.2466	0.147451
603.4747	0.150805
603.7028	0.150214
603.9309	0.143633
604.1590	0.138065
604.3871	0.133656
604.6152	0.126970
604.8434	0.123300
605.0715	0.120558
605.2997	0.125514
605.5279	0.130534
605.7561	0.135449
605.9843	0.141524
606.2125	0.138275
606.4407	0.130176
606.6689	0.123743
606.8972	0.123405
607.1254	0.126590
607.3537	0.128425
607.5819	0.130239
607.8102	0.124903
608.0385	0.122878
608.2668	0.117815
608.4951	0.118427
608.7235	0.114504
608.9518	0.112838
609.1801	0.112120
609.4085	0.106025
609.6369	0.102312
609.8653	0.107923
610.0936	0.119545
610.3220	0.125156
610.5505	0.119777
610.7789	0.112521
611.0073	0.112437
611.2357	0.108239
611.4642	0.108134
611.6927	0.109399
611.9211	0.110222
612.1496	0.108218
612.3781	0.102439
612.6066	0.099465
612.8351	0.103409
613.0637	0.102460
613.2922	0.104506
613.5208	0.097566
613.7493	0.102291
613.9779	0.106130
614.2065	0.099929
614.4351	0.103536
614.6637	0.101764
614.8923	0.105054
615.1209	0.099929
615.3495	0.103578
615.5782	0.111024
615.8068	0.108450
616.0355	0.103536
616.2642	0.098009
616.4929	0.091492
616.7216	0.090964
616.9503	0.085923
617.1790	0.088307
617.4077	0.087083
617.6365	0.089277
617.8652	0.089720
618.0940	0.086788
618.3227	0.086303
618.5515	0.083498
618.7803	0.078646
619.0091	0.074744
619.2379	0.073120
619.4667	0.072614
619.6956	0.069323
619.9244	0.075946
620.1533	0.078815
620.3821	0.080502
620.6110	0.074744
620.8399	0.070399
621.0688	0.065843
621.2977	0.057638
621.5266	0.058777
621.7556	0.059831
621.9845	0.065759
622.2135	0.066750
622.4424	0.065948
622.6714	0.068079
622.9004	0.068458
623.1294	0.070905
623.3584	0.072614
623.5874	0.075778
623.8164	0.070863
624.0454	0.068100
624.2745	0.069007
624.5035	0.073584
624.7326	0.075271
624.9617	0.072930
625.1908	0.069450
625.4199	0.064978
625.6490	0.064852
625.8781	0.066623
626.1072	0.062067
626.3364	0.062278
626.5655	0.059768
626.7947	0.056710
627.0238	0.055950
627.2530	0.059199
627.4822	0.056984
627.7114	0.059072
627.9406	0.054052
628.1698	0.053250
628.3991	0.048926
628.6283	0.048884
628.8576	0.049053
629.0868	0.049559
629.3161	0.048146
629.5454	0.049686
629.7747	0.051057
630.0040	0.050804
630.2333	0.049665
630.4626	0.048610
630.6920	0.045425
630.9213	0.045362
631.1507	0.043168
631.3801	0.044518
631.6094	0.041164
631.8388	0.042535
632.0682	0.042367
632.2976	0.042810
632.5271	0.038106
632.7565	0.038380
632.9859	0.038380
633.2154	0.034330
633.4448	0.034499
633.6743	0.035385
633.9038	0.038401
634.1333	0.035554
634.3628	0.034689
634.5923	0.034204
634.8218	0.034014
635.0514	0.033951
635.2809	0.033086
635.5105	0.033297
635.7400	0.033381
635.9696	0.034415
636.1992	0.033761
636.4288	0.038000
636.6584	0.038739
636.8880	0.037473
637.1177	0.036123
637.3473	0.033993
637.5770	0.033191
637.8066	0.033740
638.0363	0.031694
638.2660	0.032453
638.4957	0.033824
638.7254	0.033845
638.9551	0.033023
639.1848	0.033086
639.4145	0.034309
639.6443	0.031516
639.8740	0.032386
640.1038	0.028511
640.3336	0.030826
640.5633	0.031629
640.7931	0.029646
641.0229	0.029169
641.2528	0.028744
641.4826	0.026590
641.7124	0.025490
641.9423	0.026977
642.1721	0.026127
642.4020	0.025907
642.6319	0.025276
642.8617	0.024053
643.0916	0.024537
643.3216	0.022321
643.5515	0.026616
643.7814	0.023263
644.0113	0.024014
644.2413	0.022428
644.4712	0.022350
644.7012	0.021312
644.9312	0.021543
645.1612	0.022044
645.3912	0.023107
645.6212	0.022000
645.8512	0.022556
646.0812	0.022193
646.3113	0.020304
646.5413	0.019227
646.7714	0.020442
647.0015	0.020053
647.2316	0.019636
647.4616	0.020838
647.6918	0.021788
647.9219	0.020997
648.1520	0.023950
648.3821	0.024349
648.6123	0.027556
648.8424	0.028170
649.0726	0.028283
649.3028	0.028220
649.5329	0.027961
649.7631	0.026562
649.9933	0.025679
650.2236	0.025831
650.4538	0.025872
650.6840	0.023412
650.9143	0.025172
651.1445	0.022507
651.3748	0.023990
651.6051	0.023507
651.8354	0.024161
652.0657	0.026713
652.2960	0.024262
652.5263	0.027138
652.7566	0.026310
652.9870	0.025075
653.2173	0.025829
653.4477	0.026486
653.6780	0.027094
653.9084	0.028203
654.1388	0.027994
654.3692	0.029087
654.5996	0.029543
654.8300	0.031450
655.0605	0.049766
655.2909	0.129647
655.5213	0.398251
655.7518	0.783707
655.9823	1.000000
656.2128	1.000000
656.4433	1.000000
656.6738	1.000000
656.9043	0.888003
657.1348	0.715028
657.3653	0.582068
657.5959	0.495697
657.8264	0.426414
658.0570	0.387686
658.2875	0.359011
658.5181	0.319351
658.7487	0.302135
658.9793	0.287929
659.2099	0.238664
659.4406	0.167177
659.6712	0.100102
659.9018	0.059672
660.1325	0.037096
660.3632	0.026997
660.5938	0.022638
660.8245	0.022539
661.0552	0.021206
661.2859	0.020390
661.5166	0.018931
661.7474	0.016439
661.9781	0.019221
662.2088	0.017627
662.4396	0.018671
662.6704	0.018619
662.9011	0.017610
663.1319	0.018397
663.3627	0.018579
663.5935	0.017752
663.8243	0.016764
664.0552	0.017620
664.2860	0.019015
664.5168	0.018054
664.7477	0.017674
664.9786	0.020048
665.2094	0.021173
665.4403	0.020788
665.6712	0.019374
665.9021	0.018436
666.1330	0.018267
666.3640	0.018605
666.5949	0.017411
666.8259	0.016633
667.0568	0.017753
667.2878	0.017289
667.5188	0.018451
667.7497	0.018976
667.9807	0.016604
668.2117	0.015161
668.4428	0.018321
668.6738	0.018215
668.9048	0.015684
669.1359	0.016823
669.3669	0.017393
669.5980	0.016085
669.8291	0.017456
670.0602	0.018911
670.2913	0.018616
670.5224	0.017097
670.7535	0.016718
670.9846	0.018384
671.2157	0.018194
671.4469	0.022075
671.6781	0.024269
671.9092	0.023910
672.1404	0.028319
672.3716	0.026631
672.6028	0.030913
672.8340	0.027749
673.0652	0.028150
673.2964	0.026589
673.5277	0.024733
673.7589	0.023784
673.9902	0.023932
674.2214	0.022118
674.4527	0.024058
674.6840	0.022687
674.9153	0.021548
675.1466	0.021042
675.3779	0.019755
675.6093	0.020936
675.8406	0.021421
676.0719	0.021337
676.3033	0.021147
676.5347	0.019861
676.7661	0.021021
676.9974	0.018300
677.2288	0.020725
677.4602	0.021443
677.6917	0.022940
677.9231	0.025218
678.1545	0.023151
678.3860	0.023003
678.6174	0.023932
678.8489	0.024754
679.0804	0.024817
679.3119	0.027201
679.5434	0.027011
679.7749	0.028024
680.0064	0.029141
680.2379	0.027960
680.4694	0.030006
680.7010	0.028804
680.9325	0.028382
681.1641	0.027159
681.3957	0.028762
681.6273	0.028867
681.8589	0.028804
682.0905	0.028994
682.3221	0.027285
682.5537	0.024037
682.7854	0.024417
683.0170	0.025703
683.2487	0.025999
683.4803	0.026906
683.7120	0.025956
683.9437	0.025619
684.1754	0.026863
684.4071	0.027117
684.6388	0.031715
684.8705	0.032411
685.1023	0.033740
685.3340	0.035954
685.5658	0.039456
685.7975	0.036208
686.0293	0.035195
686.2611	0.035680
686.4929	0.037747
686.7247	0.034604
686.9565	0.037705
687.1883	0.036840
687.4202	0.034499
687.6520	0.035617
687.8838	0.034562
688.1157	0.032052
688.3476	0.032474
688.5795	0.031209
688.8114	0.029837
689.0433	0.029352
689.2752	0.030323
689.5071	0.030027
689.7390	0.028741
689.9710	0.028002
690.2029	0.029141
690.4349	0.027686
690.6669	0.028445
690.8988	0.028931
691.1308	0.031272
691.3628	0.032959
691.5948	0.033191
691.8269	0.032938
692.0589	0.030259
692.2909	0.031736
692.5230	0.028593
692.7550	0.031883
692.9871	0.031651
693.2192	0.034668
693.4513	0.032094
693.6834	0.033676
693.9155	0.028024
694.1476	0.028656
694.3797	0.029479
694.6119	0.027559
694.8440	0.029120
695.0762	0.029141
695.3083	0.029732
695.5405	0.028171
695.7727	0.025155
696.0049	0.024058
696.2371	0.025134
696.4693	0.026062
696.7016	0.029310
696.9338	0.033508
697.1660	0.031820
697.3983	0.031462
697.6306	0.032980
697.8628	0.033676
698.0951	0.031166
698.3274	0.030934
698.5597	0.031799
698.7920	0.031251
699.0243	0.030744
699.2567	0.028825
699.4890	0.028783
699.7214	0.027686
699.9537	0.026083
700.1861	0.027011
700.4185	0.025218
700.6509	0.025260
700.8833	0.026505
701.1157	0.023594
701.3481	0.023489
701.5806	0.022771
701.8130	0.024459
702.0454	0.024585
702.2779	0.023467
702.5104	0.025492
702.7429	0.024227
702.9753	0.024965
703.2078	0.022666
703.4403	0.023805
703.6729	0.023974
703.9054	0.024058
704.1379	0.023383
704.3705	0.021653
704.6030	0.022497
704.8356	0.019671
705.0682	0.020472
705.3008	0.020156
705.5334	0.019945
705.7660	0.018933
705.9986	0.021042
706.2312	0.021400
706.4638	0.022982
706.6965	0.027602
706.9291	0.029373
707.1618	0.029732
707.3945	0.029669
707.6272	0.031694
707.8599	0.031462
708.0926	0.030850
708.3253	0.033339
708.5580	0.029500
708.7907	0.030744
709.0235	0.030470
709.2562	0.029837
709.4890	0.027370
709.7217	0.027918
709.9545	0.027222
710.1873	0.028530
710.4201	0.029268
710.6529	0.030470
710.8857	0.028403
711.1186	0.026484
711.3514	0.025598
711.5842	0.025956
711.8171	0.023826
712.0500	0.023088
712.2828	0.024269
712.5157	0.025661
712.7486	0.025450
712.9815	0.023889
713.2144	0.024628
713.4474	0.026442
713.6803	0.025956
713.9132	0.030386
714.1462	0.028635
714.3791	0.029880
714.6121	0.028551
714.8451	0.028024
715.0781	0.030238
715.3111	0.028466
715.5441	0.029479
715.7771	0.026800
716.0102	0.026842
716.2432	0.025872
716.4762	0.024501
716.7093	0.024332
716.9424	0.023889
717.1754	0.023404
717.4085	0.023932
717.6416	0.022666
717.8747	0.022603
718.1078	0.024902
718.3410	0.023531
718.5741	0.020704
718.8072	0.023151
719.0404	0.024079
719.2736	0.024353
719.5067	0.023531
719.7399	0.024881
719.9731	0.024016
720.2063	0.021569
720.4395	0.025408
720.6727	0.021991
720.9060	0.024754
721.1392	0.025092
721.3725	0.024543
721.6057	0.024185
721.8390	0.022286
722.0723	0.024670
722.3055	0.022835
722.5388	0.021485
722.7721	0.022560
723.0055	0.021548
723.2388	0.023088
723.4721	0.022835
723.7055	0.023046
723.9388	0.023868
724.1722	0.023299
724.4056	0.024628
724.6389	0.022434
724.8723	0.023172
725.1057	0.025303
725.3391	0.027538
725.5726	0.025471
725.8060	0.027159
726.0394	0.027538
726.2729	0.027011
726.5063	0.029711
726.7398	0.027370
726.9733	0.025598
727.2068	0.027665
727.4403	0.029015
727.6738	0.027813
727.9073	0.028572
728.1408	0.027876
728.3743	0.027538
728.6079	0.028952
728.8414	0.028234
729.0750	0.028488
729.3086	0.028572
729.5421	0.031082
729.7757	0.031019
730.0093	0.031377
730.2429	0.031799
730.4766	0.029226
730.7102	0.030597
730.9438	0.035870
731.1775	0.034773
731.4111	0.034583
731.6448	0.036461
731.8785	0.036165
732.1122	0.032094
732.3458	0.034626
732.5795	0.033634
732.8133	0.035364
733.0470	0.036967
733.2807	0.035322
733.5145	0.037157
733.7482	0.038148
733.9820	0.038338
734.2157	0.042662
734.4495	0.043358
734.6833	0.043020
734.9171	0.037473
735.1509	0.039477
735.3847	0.040468
735.6185	0.037937
735.8524	0.038190
736.0862	0.042092
736.3201	0.038760
736.5539	0.039878
736.7878	0.039688
737.0217	0.040004
737.2556	0.039793
737.4895	0.039097
737.7234	0.035722
737.9573	0.033233
738.1912	0.035026
738.4252	0.032959
738.6591	0.031947
738.8931	0.036524
739.1271	0.036798
739.3610	0.041692
739.5950	0.038380
739.8290	0.038275
740.0630	0.034119
740.2970	0.034689
740.5310	0.036229
740.7651	0.033676
740.9991	0.031567
741.2332	0.031251
741.4672	0.030787
741.7013	0.028572
741.9354	0.028213
742.1695	0.027159
742.4036	0.028066
742.6377	0.030006
742.8718	0.028973
743.1059	0.026631
743.3400	0.025914
743.5742	0.026442
743.8083	0.024332
744.0425	0.025387
744.2767	0.022814
744.5108	0.024142
744.7450	0.024585
744.9792	0.024712
745.2134	0.024691
745.4477	0.024058
745.6819	0.023025
745.9161	0.023657
746.1504	0.025239
746.3846	0.024206
746.6189	0.024733
746.8532	0.021738
747.0874	0.024480
747.3217	0.026758
747.5560	0.025577
747.7903	0.027475
748.0247	0.024227
748.2590	0.024564
748.4933	0.024923
748.7277	0.023932
748.9620	0.023636
749.1964	0.024290
749.4308	0.027074
749.6652	0.028804
749.8995	0.030808
750.1339	0.032622
750.3684	0.033402
750.6028	0.031061
750.8372	0.032411
751.0717	0.031398
751.3061	0.032010
751.5406	0.032790
751.7750	0.031293
752.0095	0.033887
752.2440	0.033508
752.4785	0.032116
752.7130	0.031061
752.9475	0.029099
753.1820	0.030175
753.4166	0.031377
753.6511	0.034773
753.8856	0.035448
754.1202	0.033803
754.3548	0.032495
754.5894	0.032200
754.8239	0.033128
755.0585	0.031989
755.2931	0.035132
755.5278	0.034330
755.7624	0.032242
755.9970	0.036355
756.2317	0.037241
756.4663	0.038907
756.7010	0.039899
756.9356	0.042493
757.1703	0.044792
757.4050	0.045320
757.6397	0.049116
757.8744	0.050234
758.1091	0.048357
758.3438	0.048336
758.5786	0.044602
758.8133	0.043231
759.0481	0.044159
759.2828	0.047998
759.5176	0.045320
759.7524	0.049981
759.9872	0.050087
760.2220	0.052343
760.4568	0.053672
760.6916	0.051162
760.9264	0.050783
761.1613	0.048420
761.3961	0.046859
761.6310	0.046902
761.8658	0.043105
762.1007	0.042388
762.3356	0.039287
762.5705	0.039667
762.8054	0.037916
763.0403	0.041164
763.2752	0.042367
763.5101	0.041354
763.7450	0.040574
763.9800	0.040953
764.2149	0.041628
764.4499	0.046311
764.6849	0.045594
764.9198	0.049391
765.1548	0.048568
765.3898	0.048441
765.6248	0.044181
765.8599	0.043548
766.0949	0.039287
766.3299	0.041692
766.5650	0.036904
766.8000	0.033571
767.0351	0.029479
767.2701	0.032748
767.5052	0.031040
767.7403	0.031968
767.9754	0.031841
768.2105	0.036165
768.4456	0.035596
768.6808	0.037199
768.9159	0.039857
769.1510	0.040025
769.3862	0.038464
769.6214	0.038317
769.8565	0.036587
770.0917	0.037093
770.3269	0.037536
770.5621	0.036208
770.7973	0.038760
771.0325	0.039857
771.2677	0.041481
771.5030	0.038549
771.7382	0.037115
771.9735	0.036925
772.2087	0.033423
772.4440	0.032790
772.6793	0.034647
772.9146	0.033740
773.1499	0.033128
773.3852	0.031061
773.6205	0.030534
773.8558	0.030618
774.0911	0.028361
774.3265	0.027032
774.5618	0.028783
774.7972	0.025577
775.0326	0.027454
775.2679	0.025914
775.5033	0.023341
775.7387	0.023510
775.9741	0.022560
776.2095	0.021886
776.4450	0.021632
776.6804	0.021843
776.9158	0.020557
777.1513	0.021506
777.3868	0.019924
777.6222	0.020704
777.8577	0.019354
778.0932	0.021168
778.3287	0.021126
778.5642	0.021611
778.7997	0.024986
779.0352	0.024965
779.2707	0.025429
779.5063	0.027011
779.7418	0.027011
779.9774	0.024016
780.2130	0.023151
780.4485	0.025239
780.6841	0.022771
780.9197	0.026547
781.1553	0.028973
781.3909	0.030618
781.6265	0.029753
781.8622	0.027222
782.0978	0.027370
782.3335	0.029373
782.5691	0.028888
782.8048	0.028656
783.0405	0.026589
783.2761	0.028952
783.5118	0.028424
783.7475	0.029289
783.9832	0.027602
784.2190	0.028762
784.4547	0.025535
784.6904	0.024290
784.9262	0.022075
785.1619	0.024923
785.3977	0.023383
785.6335	0.022877
785.8692	0.025830
786.1050	0.024037
786.3408	0.022012
786.5766	0.023889
786.8124	0.020979
787.0483	0.023489
787.2841	0.023847
787.5199	0.025598
787.7558	0.024290
787.9917	0.025513
788.2275	0.023699
788.4634	0.025598
788.6993	0.025197
788.9352	0.026674
789.1711	0.027138
789.4070	0.023510
789.6429	0.023510
789.8789	0.021801
790.1148	0.023678
790.3507	0.022434
790.5867	0.020367
790.8227	0.021126
791.0586	0.021316
791.2946	0.019249
791.5306	0.020261
791.7666	0.019966
792.0026	0.021084
792.2387	0.018532
792.4747	0.018595
792.7107	0.019460
792.9468	0.017604
793.1828	0.018089
793.4189	0.018658
793.6550	0.020240
793.8910	0.021464
794.1271	0.025007
794.3632	0.027117
794.5993	0.025324
794.8355	0.026652
795.0716	0.025492
795.3077	0.027349
795.5439	0.025535
795.7800	0.023552
796.0162	0.021949
796.2523	0.021780
796.4885	0.019734
796.7247	0.019481
796.9609	0.018068
797.1971	0.020282
797.4333	0.019333
797.6695	0.018511
797.9058	0.020430
798.1420	0.020683
798.3783	0.017730
798.6145	0.018658
798.8508	0.018616
799.0871	0.019354
799.3233	0.019375
799.5596	0.017836
799.7959	0.016380
800.0322	0.016001
800.2686	0.016127
800.5049	0.015136
800.7412	0.015073
800.9776	0.016760
801.2139	0.015305
801.4503	0.017962
801.6867	0.015748
801.9230	0.015410
802.1594	0.014566
802.3958	0.014587
802.6322	0.013491
802.8686	0.013976
803.1051	0.013702
803.3415	0.015305
803.5779	0.014735
803.8144	0.013427
804.0508	0.014313
804.2873	0.014819
804.5238	0.015473
804.7603	0.014883
804.9968	0.014250
805.2333	0.016127
805.4698	0.014651
805.7063	0.014841
805.9428	0.018616
806.1794	0.018236
806.4159	0.018679
806.6525	0.019544
806.8890	0.020050
807.1256	0.018300
807.3622	0.019502
807.5988	0.018975
807.8354	0.020915
808.0720	0.018468
808.3086	0.020514
808.5452	0.020599
808.7818	0.020050
809.0185	0.019397
809.2551	0.020683
809.4918	0.015790
809.7284	0.017161
809.9651	0.016528
810.2018	0.015431
810.4385	0.014313
810.6752	0.015326
810.9119	0.014187
811.1486	0.015958
811.3853	0.014967
811.6221	0.015853
811.8588	0.013955
812.0956	0.014482
812.3323	0.012288
812.5691	0.013069
812.8059	0.012689
813.0427	0.011613
813.2795	0.010917
813.5163	0.014988
813.7531	0.013280
813.9899	0.016233
814.2267	0.015790
814.4636	0.015220
814.7004	0.014144
814.9373	0.012731
815.1742	0.014440
815.4110	0.013216
815.6479	0.012309
815.8848	0.012858
816.1217	0.011930
816.3586	0.012141
816.5955	0.012541
816.8324	0.010896
817.0694	0.012520
817.3063	0.011402
817.5433	0.013216
817.7802	0.012394
818.0172	0.012773
818.2542	0.012605
818.4912	0.011360
818.7282	0.010263
818.9652	0.008998
819.2022	0.012141
819.4392	0.010158
819.6762	0.009462
819.9133	0.010601
820.1503	0.010179
820.3874	0.011402
820.6244	0.012267
820.8615	0.013364
821.0986	0.013617
821.3357	0.012267
821.5727	0.012942
821.8099	0.012436
822.0470	0.012014
822.2841	0.012352
822.5212	0.012499
822.7584	0.009377
822.9955	0.010221
823.2327	0.010580
823.4698	0.008428
823.7070	0.008703
823.9442	0.009546
824.1814	0.009715
824.4186	0.008386
824.6558	0.011002
824.8930	0.010390
825.1302	0.009251
825.3675	0.009504
825.6047	0.010981
825.8419	0.011782
826.0792	0.011972
826.3165	0.009145
826.5537	0.011930
826.7910	0.010158
827.0283	0.008935
827.2656	0.010095
827.5029	0.011234
827.7402	0.010369
827.9776	0.012563
828.2149	0.009652
828.4522	0.010854
828.6896	0.010242
828.9270	0.011276
829.1643	0.011423
829.4017	0.010010
829.6391	0.009019
829.8765	0.009483
830.1139	0.008977
830.3513	0.009715
830.5887	0.007901
830.8261	0.007374
831.0636	0.007606
831.3010	0.007437
831.5385	0.006952
831.7759	0.006994
832.0134	0.005771
832.2509	0.007078
832.4884	0.006045
832.7259	0.007669
832.9634	0.008681
833.2009	0.007036
833.4384	0.007985
833.6759	0.007500
833.9135	0.007374
834.1510	0.008703
834.3886	0.009167
834.6261	0.009356
834.8637	0.010221
835.1013	0.010137
835.3389	0.008576
835.5765	0.007859
835.8141	0.008513
836.0517	0.008534
836.2893	0.007205
836.5269	0.008302
836.7646	0.007838
837.0022	0.007099
837.2399	0.006509
837.4775	0.005496
837.7152	0.005328
837.9529	0.006952
838.1906	0.005771
838.4283	0.005328
838.6660	0.005454
838.9037	0.005412
839.1414	0.005264
839.3791	0.006024
839.6169	0.006340
839.8546	0.006572
840.0924	0.005201
840.3302	0.005918
840.5679	0.006382
840.8057	0.007648
841.0435	0.005918
841.2813	0.005412
841.5191	0.005560
841.7569	0.006214
841.9947	0.005412
842.2326	0.005011
842.4704	0.005096
842.7082	0.003071
842.9461	0.005496
843.1840	0.002944
843.4218	0.005897
843.6597	0.005032
843.8976	0.004547
844.1355	0.006467
844.3734	0.003809
844.6113	0.005412
844.8492	0.003788
845.0872	0.005939
845.3251	0.003872
845.5631	0.005539
845.8010	0.004505
846.0390	0.005581
846.2770	0.003725
846.5149	0.002965
846.7529	0.003725
846.9909	0.003809
847.2289	0.004484
847.4669	0.004041
847.7050	0.004442
847.9430	0.005159
848.1810	0.004210
848.4191	0.003619
848.6571	0.003682
848.8952	0.004716
849.1333	0.003809
849.3713	0.004146
849.6094	0.004505
849.8475	0.003535
850.0856	0.003725
850.3237	0.003640
850.5619	0.004758
850.8000	0.004843
851.0381	0.003978
851.2763	0.002375
851.5144	0.003914
851.7526	0.003408
851.9908	0.004653
852.2289	0.003661
852.4671	0.006087
852.7053	0.007121
852.9435	0.008534
853.1817	0.010791
853.4200	0.011149
853.6582	0.012183
853.8964	0.011761
854.1347	0.011930
854.3729	0.010474
854.6112	0.012689
854.8495	0.011993
855.0877	0.011888
855.3260	0.012647
855.5643	0.010896
855.8026	0.008977
856.0409	0.010749
856.2792	0.009905
856.5176	0.010559
856.7559	0.009989
856.9942	0.010833
857.2326	0.008808
857.4710	0.008386
857.7093	0.009610
857.9477	0.008407
858.1861	0.007500
858.4245	0.009019
858.6629	0.006361
858.9013	0.007922
859.1397	0.006614
859.3781	0.008766
859.6166	0.006867
859.8550	0.007922
860.0935	0.007099
860.3319	0.007310
860.5704	0.006425
860.8089	0.005834
861.0473	0.003767
861.2858	0.006530
861.5243	0.004146
861.7628	0.006235
862.0013	0.005201
862.2399	0.006256
862.4784	0.003914
862.7169	0.006256
862.9555	0.005075
863.1940	0.006825
863.4326	0.005792
863.6712	0.005560
863.9098	0.006277
864.1483	0.004821
864.3869	0.005370
864.6255	0.004758
864.8642	0.004400
865.1028	0.004800
865.3414	0.004400
865.5800	0.005011
865.8187	0.004568
866.0573	0.003914
866.2960	0.003387
866.5347	0.004189
866.7733	0.004969
867.0120	0.004463
867.2507	0.004843
867.4894	0.006277
867.7281	0.005918
867.9669	0.004927
868.2056	0.005159
868.4443	0.004484
868.6831	0.004336
868.9218	0.004843
869.1606	0.004927
869.3993	0.002670
869.6381	0.004062
869.8769	0.005075
870.1157	0.003514
870.3545	0.006340
870.5933	0.003704
870.8321	0.004843
871.0709	0.005560
871.3097	0.005222
871.5486	0.005496
871.7874	0.004948
872.0263	0.004442
872.2651	0.003282
872.5040	0.004315
872.7429	0.004589
872.9818	0.003556
873.2207	0.003809
873.4596	0.003893
873.6985	0.003345
873.9374	0.003936
874.1763	0.005433
874.4153	0.004484
874.6542	0.002902
874.8932	0.005939
875.1321	0.003809
875.3711	0.006572
875.6101	0.005982
875.8491	0.004231
876.0880	0.005581
876.3270	0.005707
876.5661	0.003071
876.8051	0.004273
877.0441	0.004400
877.2831	0.004969
877.5222	0.004906
877.7612	0.005454
878.0003	0.006720
878.2393	0.006340
878.4784	0.005222
878.7175	0.006045
878.9566	0.004800
879.1957	0.006087
879.4348	0.005728
879.6739	0.004484
879.9130	0.006298
880.1521	0.007078
880.3913	0.006593
880.6304	0.006551
880.8696	0.006678
881.1087	0.005349
881.3479	0.006551
881.5871	0.007184
881.8262	0.005307
882.0654	0.004231
882.3046	0.006403
882.5438	0.007289
882.7831	0.003682
883.0223	0.006214
883.2615	0.005771
883.5007	0.005539
883.7400	0.005243
883.9792	0.006973
884.2185	0.005518
884.4578	0.006657
884.6971	0.004062
884.9363	0.005307
885.1756	0.005623
885.4149	0.005728
885.6542	0.006108
885.8936	0.006298
886.1329	0.004020
886.3722	0.005813
886.6116	0.005075
886.8509	0.005496
887.0903	0.004336
887.3296	0.003429
887.5690	0.004421
887.8084	0.005011
888.0478	0.006003
888.2872	0.004125
888.5266	0.004231
888.7660	0.005539
889.0054	0.006403
889.2448	0.005771
889.4843	0.002797
889.7237	0.004020
889.9632	0.004632
890.2026	0.003809
890.4421	0.004674
890.6816	0.003788
890.9211	0.003978
891.1606	0.003429
891.4001	0.002501
891.6396	0.004758
891.8791	0.004210
892.1186	0.005792
892.3581	0.004716
892.5977	0.003577
892.8372	0.003514
893.0768	0.003514
893.3163	0.004885
893.5559	0.003472
893.7955	0.005285
894.0351	0.003092
894.2747	0.003725
894.5143	0.003704
894.7539	0.002628
894.9935	0.004779
895.2331	0.004294
895.4727	0.002944
895.7124	0.004400
895.9520	0.004315
896.1917	0.003598
896.4314	0.003661
896.6710	0.003788
896.9107	0.002923
897.1504	0.002691
897.3901	0.004716
897.6298	0.004336
897.8695	0.003472
898.1092	0.003957
898.3489	0.004758
898.5887	0.004716
898.8284	0.003893
899.0682	0.004104
899.3079	0.004083
899.5477	0.003893
899.7875	0.003957
900.0272	0.004041
900.2670	0.003050
900.5068	0.005412
900.7466	0.003725
900.9864	0.002480
901.2263	0.004125
901.4661	0.003472
901.7059	0.005032
901.9458	0.004020
902.1856	0.003387
902.4255	0.003767
902.6654	0.004231
902.9052	0.003218
903.1451	0.004189
903.3850	0.004315
903.6249	0.003598
903.8648	0.005096
904.1047	0.003366
904.3446	0.003936
904.5846	0.004315
904.8245	0.003598
905.0644	0.004125
905.3044	0.004189
905.5444	0.003914
905.7843	0.004336
906.0243	0.005349
906.2643	0.003914
906.5043	0.004442
906.7443	0.003851
906.9843	0.003809
907.2243	0.002670
907.4643	0.003788
907.7043	0.003661
907.9444	0.002965
908.1844	0.002037
908.4245	0.004210
908.6645	0.001784
908.9046	0.004821
909.1447	0.003050
909.3847	0.003661
909.6248	0.002944
909.8649	0.003113
910.1050	0.002986
910.3452	0.003893
910.5853	0.001953
910.8254	0.003978
911.0655	0.002543
911.3057	0.004252
911.5458	0.003282
911.7860	0.003282
912.0262	0.002944
912.2663	0.003429
912.5065	0.003577
912.7467	0.002586
912.9869	0.003957
913.2271	0.003155
913.4673	0.003556
913.7075	0.002311
913.9478	0.002480
914.1880	0.003218
914.4283	0.001847
914.6685	0.002712
914.9088	0.001953
915.1490	0.002543
915.3893	0.001805
915.6296	0.002522
915.8699	0.002775
916.1102	0.003366
916.3505	0.003514
916.5908	0.003176
916.8311	0.003429
917.0714	0.002586
917.3118	0.004062
917.5521	0.003514
917.7925	0.004168
918.0328	0.002733
918.2732	0.002459
918.5136	0.003387
918.7539	0.002522
918.9943	0.005412
919.2347	0.002607
919.4751	0.003218
919.7155	0.002417
919.9560	0.003303
920.1964	0.003282
920.4368	0.003303
920.6773	0.003851
920.9177	0.003366
921.1582	0.002839
921.3986	0.003092
921.6391	0.001847
921.8796	0.002311
922.1201	0.003007
922.3606	0.003071
922.6011	0.003809
922.8416	0.003218
923.0821	0.004315
923.3226	0.003282
923.5631	0.002396
923.8037	0.002522
924.0442	0.003134
924.2848	0.002037
924.5254	0.001700
924.7659	0.001636
925.0065	0.001510
925.2471	0.002311
925.4877	0.002628
925.7283	0.002164
925.9689	0.002986
926.2095	0.002122
926.4501	0.000287
926.6908	0.002733
926.9314	0.003218
927.1720	0.002754
927.4127	0.002522
927.6533	0.002016
927.8940	0.002354
928.1347	0.002818
928.3754	0.003598
928.6161	0.003050
928.8568	0.001004
929.0975	0.003029
929.3382	0.001531
929.5789	0.002143
929.8196	0.002691
930.0604	0.000940
930.3011	0.001531
930.5419	0.000983
930.7826	0.002501
931.0234	0.002100
931.2642	0.002881
931.5049	0.001362
931.7457	0.001151
931.9865	0.002058
932.2273	0.002775
932.4681	0.002311
932.7089	0.001193
932.9498	0.002058
933.1906	0.002333
933.4314	0.002881
933.6723	0.001215
933.9131	0.002122
934.1540	0.002248
934.3949	0.002733
934.6358	0.002100
934.8766	0.002164
935.1175	0.001911
935.3584	0.002311
935.5993	0.001953
935.8403	0.002333
936.0812	0.002459
936.3221	0.002100
936.5630	0.001151
936.8040	0.002839
937.0449	0.000392
937.2859	0.002037
937.5269	0.001932
937.7678	0.000961
938.0088	0.001193
938.2498	0.001151
938.4908	0.002944
938.7318	0.002944
938.9728	0.001236
939.2138	0.001067
939.4549	0.002712
939.6959	0.000139
939.9369	0.002459
940.1780	0.001426
940.4190	0.000919
940.6601	0.002206
940.9012	0.001468
941.1422	0.000708
941.3833	-0.000494
941.6244	0.000076
941.8655	0.000751
942.1066	0.001067
942.3477	0.001489
942.5889	0.002923
942.8300	0.002333
943.0711	0.000708
943.3123	0.001658
943.5534	0.000624
943.7946	0.001025
944.0357	0.001658
944.2769	0.000497
944.5181	0.000898
944.7593	0.002290
945.0005	0.001025
945.2417	0.002417
945.4829	0.000898
945.7241	0.001172
945.9653	0.001383
946.2066	0.001658
946.4478	0.002143
946.6891	0.001890
946.9303	0.001468
947.1716	0.000919
947.4128	0.001193
947.6541	0.001046
947.8954	0.001236
948.1367	0.001257
948.3780	0.001109
948.6193	0.000371
948.8606	0.000350
949.1019	0.001953
949.3433	0.001109
949.5846	0.001974
949.8259	0.000751
950.0673	0.001489
950.3086	-0.000578
950.5500	0.003324
950.7914	0.002375
951.0327	0.001215
951.2741	0.000983
951.5155	0.001594
951.7569	0.002079
951.9983	0.001615
952.2398	0.001594
952.4812	0.000076
952.7226	0.002164
952.9640	0.001953
953.2055	0.002290
953.4469	0.001763
953.6884	0.002333
953.9299	0.002775
954.1713	-0.000494
954.4128	0.001215
954.6543	0.001700
954.8958	0.001299
955.1373	0.001320
955.3788	0.002501
955.6203	0.002037
955.8618	0.000603
956.1034	0.001953
956.3449	0.001046
956.5865	0.000392
956.8280	0.001447
957.0696	0.001257
957.3111	0.000666
957.5527	0.000751
957.7943	-0.000220
958.0359	0.001278
958.2775	0.001742
958.5191	0.000476
958.7607	0.001742
959.0023	0.000244
959.2439	0.003007
959.4856	0.000877
959.7272	0.002501
959.9688	0.000561
960.2105	0.001742
960.4522	0.001679
960.6938	0.000708
960.9355	0.001426
961.1772	-0.000093
961.4189	0.000751
961.6606	0.001615
961.9023	-0.000831
962.1440	0.000139
962.3857	-0.001085
962.6274	0.000919
962.8692	0.001826
963.1109	0.000455
963.3527	0.001130
963.5944	0.000139
963.8362	0.001088
964.0779	0.001004
964.3197	0.000519
964.5615	-0.000072
964.8033	0.000940
965.0451	0.001847
965.2869	0.000772
965.5287	0.001489
965.7705	0.000751
966.0123	-0.000030
966.2542	0.000054
966.4960	0.001299
966.7379	0.000160
966.9797	0.001531
967.2216	0.000561
967.4634	0.001278
967.7053	0.000793
967.9472	0.001868
968.1891	0.000729
968.4310	0.001109
968.6729	0.001046
968.9148	0.001784
969.1567	0.000118
969.3987	0.002164
969.6406	0.002565
969.8825	0.000793
970.1245	0.000054
970.3664	0.001700
970.6084	0.001531
970.8504	0.001172
971.0923	-0.000093
971.3343	0.000434
971.5763	-0.000895
971.8183	0.000265
972.0603	0.000244
972.3023	0.000919
972.5443	0.000160
972.7864	0.002058
973.0284	0.000118
973.2704	0.000751
973.5125	0.000919
973.7545	0.000772
973.9966	0.001426
974.2387	0.002227
974.4807	0.001426
974.7228	0.000877
974.9649	0.000898
975.2070	0.002670
975.4491	0.000603
975.6912	0.000497
975.9333	-0.001401
976.1755	0.002058
976.4176	0.001088
976.6597	-0.000304
976.9019	-0.001127
977.1440	0.000793
977.3862	-0.001063
977.6283	0.000181
977.8705	-0.000937
978.1127	0.000708
978.3549	-0.000199
978.5971	0.001932
978.8393	-0.000114
979.0815	-0.000072
979.3237	0.001151
979.5659	0.002333
979.8082	0.000139
980.0504	0.001404
980.2926	0.000033
980.5349	0.000308
980.7771	0.001088
981.0194	-0.000241
981.2617	0.001193
981.5040	0.000033
981.7462	0.000983
981.9885	0.000645
982.2308	0.000519
982.4731	-0.000958
982.7155	0.000919
982.9578	0.000814
983.2001	-0.000114
983.4424	0.001447
983.6848	0.000793
983.9271	0.002333
984.1695	0.001742
984.4118	0.001615
984.6542	0.001215
984.8966	-0.000388
985.1390	0.000793
985.3814	-0.000283
985.6238	0.000561
985.8662	-0.000241
986.1086	-0.000726
986.3510	0.002037
986.5934	0.000455
986.8358	0.001658
987.0783	-0.000220
987.3207	0.001826
987.5632	0.000076
987.8056	0.000983
988.0481	0.000814
988.2906	0.000287
988.5331	0.000666
988.7756	0.001109
989.0180	0.001615
989.2605	0.000033
989.5031	0.000898
989.7456	-0.000114
989.9881	0.000814
990.2306	0.000729
990.4732	0.000350
990.7157	0.001362
990.9582	0.000223
991.2008	0.000708
991.4434	0.000476
991.6859	0.000729
991.9285	0.000898
992.1711	0.000645
992.4137	-0.000241
992.6563	0.001784
992.8989	-0.000388
993.1415	0.000666
993.3841	0.000983
993.6267	0.000012
993.8694	0.000160
994.1120	0.001109
994.3547	-0.000156
994.5973	0.000582
994.8400	0.000666
995.0826	0.000097
995.3253	-0.000726
995.5680	0.000624
995.8107	-0.000620
996.0534	-0.000388
996.2961	0.001257
996.5388	0.000455
996.7815	0.000772
997.0242	0.000645
997.2670	0.000033
997.5097	0.000729
997.7524	0.000476
997.9952	0.000666
998.2379	0.001109
998.4807	0.000476
998.7235	0.000244
998.9662	-0.000262
999.2090	0.000160
999.4518	-0.000283
999.6946	0.001109
999.9374	-0.000599
1000.1802	-0.000410
1000.4230	-0.000473
1000.6659	-0.000747
1000.9087	-0.000895
1001.1515	0.000793
1001.3944	0.000392
1001.6372	0.000877
1001.8801	0.000371
1002.1230	-0.000304
1002.3658	0.000603
1002.6087	-0.000325
1002.8516	0.000012
1003.0945	0.000856
1003.3374	-0.000515
1003.5803	0.000308
1003.8232	-0.000199
1004.0661	0.000603
1004.3091	0.000160
1004.5520	0.000012
1004.7949	-0.001907
1005.0379	0.000540
1005.2808	-0.000009
1005.5238	-0.000114
1005.7667	-0.000283
1006.0097	0.000898
1006.2527	0.000603
1006.4957	-0.000705
1006.7387	0.000160
1006.9817	0.001109
1007.2247	0.000160
1007.4677	-0.000663
1007.7107	0.001447
1007.9538	-0.000135
1008.1968	0.001215
1008.4398	0.001362
1008.6829	-0.000747
1008.9259	0.000476
1009.1690	-0.000958
1009.4121	0.001468
1009.6551	-0.000156
1009.8982	0.000329
1010.1413	0.001067
1010.3844	0.000497
1010.6275	-0.000262
1010.8706	0.001636
1011.1137	0.000181
1011.3568	0.001151
1011.6000	0.001679
1011.8431	0.000012
1012.0863	-0.000072
1012.3294	0.001215
1012.5726	0.000033
1012.8157	-0.000705
1013.0589	0.001067
1013.3021	0.000772
1013.5452	0.000223
1013.7884	0.001320
1014.0316	-0.000009
1014.2748	-0.000410
1014.5180	-0.000431
1014.7613	0.001025
1015.0045	0.000645
1015.2477	0.000519
1015.4909	0.000476
1015.7342	0.000350
1015.9774	0.000350
1016.2207	0.000181
1016.4640	0.001299
1016.7072	0.000666
1016.9505	-0.000241
1017.1938	-0.000620
1017.4371	-0.000916
1017.6804	0.001193
1017.9237	0.000054
1018.1670	0.001594
1018.4103	-0.000114
1018.6536	0.001109
1018.8969	0.000793
1019.1403	-0.000072
1019.3836	-0.000325
1019.6270	0.001130
1019.8703	0.000961
1020.1137	0.000244
1020.3571	0.001531
1020.6004	0.000413
1020.8438	0.000244
1021.0872	0.000519
1021.3306	0.002058
1021.5740	0.000181
1021.8174	-0.000599
1022.0608	0.000476
1022.3042	0.000076
1022.5477	0.001447
1022.7911	-0.000325
1023.0345	0.000519
