# Wavelength (nm)	Intensity (a.u.)
197.7802	0.001570
197.9842	-0.000671
198.1882	0.000048
198.3922	0.001485
198.5963	0.000576
198.8003	-0.001115
199.0044	0.000492
199.2085	0.001041
199.4126	0.002416
199.6168	-0.001052
199.8209	0.001612
200.0251	0.000745
200.2292	0.000449
200.4334	0.001359
200.6376	0.001591
200.8418	-0.000206
201.0461	-0.000946
201.2503	0.000640
201.4546	0.000745
201.6589	-0.001263
201.8631	0.001507
202.0674	-0.000079
202.2718	0.000259
202.4761	-0.000100
202.6805	-0.000270
202.8848	0.000576
203.0892	-0.000185
203.2936	0.001739
203.4980	0.000999
203.7024	-0.000058
203.9069	0.001443
204.1113	0.000322
204.3158	-0.000904
204.5203	0.000196
204.7248	0.000470
204.9293	-0.000862
205.1338	0.001443
205.3384	0.000640
205.5430	0.000407
205.7475	0.000280
205.9521	-0.000058
206.1567	0.000597
206.3614	-0.000439
206.5660	0.001401
206.7706	0.001422
206.9753	0.000344
207.1800	0.000576
207.3847	-0.000798
207.5894	-0.000439
207.7941	-0.000016
207.9989	0.000196
208.2036	0.000745
208.4084	0.002606
208.6132	-0.000629
208.8180	-0.000671
209.0228	-0.000375
209.2276	0.000365
209.4325	-0.000629
209.6373	-0.000143
209.8422	0.000597
210.0471	-0.000122
210.2520	0.000132
210.4569	0.001824
210.6618	-0.000396
210.8668	0.001041
211.0718	0.000576
211.2767	0.002416
211.4817	0.002416
211.6867	-0.000523
211.8918	-0.000418
212.0968	0.001528
212.3018	0.000682
212.5069	0.000238
212.7120	0.001929
212.9171	0.001274
213.1222	-0.001327
213.3273	0.001232
213.5325	0.000576
213.7376	0.000132
213.9428	0.000534
214.1480	0.001570
214.3532	0.000174
214.5584	0.001549
214.7636	0.000407
214.9689	0.000428
215.1741	0.000386
215.3794	-0.000100
215.5847	-0.000714
215.7900	-0.000375
215.9953	-0.000333
216.2007	0.000893
216.4060	-0.000502
216.6114	0.002204
216.8168	-0.000100
217.0222	-0.000671
217.2276	-0.000100
217.4330	0.000767
217.6384	-0.000904
217.8439	0.002120
218.0494	0.000767
218.2548	0.002226
218.4603	-0.000185
218.6659	0.001337
218.8714	0.002056
219.0769	0.001105
219.2825	-0.000671
219.4881	0.000217
219.6936	-0.001390
219.8992	0.002183
220.1049	-0.000502
220.3105	0.000492
220.5161	-0.000735
220.7218	0.000703
220.9275	0.000048
221.1332	-0.000227
221.3389	0.001359
221.5446	-0.000079
221.7503	0.000238
221.9561	-0.000206
222.1618	-0.001411
222.3676	0.000492
222.5734	-0.001538
222.7792	0.001041
222.9850	0.001655
223.1909	0.001929
223.3967	0.000915
223.6026	-0.000185
223.8085	0.001760
224.0144	-0.000904
224.2203	0.000999
224.4262	-0.000481
224.6322	0.000407
224.8381	0.000217
225.0441	-0.000798
225.2501	0.001274
225.4561	0.000640
225.6621	0.001676
225.8681	-0.000122
226.0742	0.000851
226.2802	-0.000629
226.4863	-0.000650
226.6924	0.000745
226.8985	0.002754
227.1046	-0.000819
227.3107	-0.001221
227.5169	-0.000333
227.7230	0.001168
227.9292	0.000048
228.1354	0.000280
228.3416	0.000280
228.5478	0.001824
228.7541	0.000301
228.9603	0.001612
229.1666	0.000174
229.3729	0.000344
229.5791	-0.000523
229.7855	-0.000164
229.9918	-0.000016
230.1981	-0.000544
230.4045	-0.000248
230.6108	0.000280
230.8172	0.000682
231.0236	0.002543
231.2300	-0.000735
231.4364	-0.000100
231.6429	-0.000354
231.8493	0.001528
232.0558	-0.000671
232.2623	-0.000016
232.4688	-0.000841
232.6753	-0.001115
232.8818	0.000069
233.0884	0.002247
233.2949	0.001211
233.5015	0.000301
233.7081	-0.000227
233.9147	0.001189
234.1213	0.000978
234.3279	0.001401
234.5346	-0.000312
234.7413	0.001020
234.9479	-0.000037
235.1546	0.000851
235.3613	-0.000418
235.5680	0.001168
235.7748	0.000196
235.9815	0.000280
236.1883	0.000217
236.3951	0.001105
236.6018	0.000893
236.8087	0.002120
237.0155	0.001274
237.2223	-0.000608
237.4292	0.000661
237.6360	-0.000544
237.8429	-0.000100
238.0498	0.000957
238.2567	-0.000862
238.4636	0.001168
238.6706	-0.000418
238.8775	-0.000016
239.0845	0.000069
239.2915	0.003008
239.4985	-0.000587
239.7055	0.003198
239.9125	-0.000418
240.1195	0.000936
240.3266	-0.000164
240.5337	-0.000883
240.7407	0.001041
240.9478	-0.000100
241.1549	-0.000333
241.3621	0.001485
241.5692	0.000069
241.7764	0.001718
241.9835	-0.000333
242.1907	0.001232
242.3979	-0.002067
242.6051	0.001739
242.8124	0.000365
243.0196	0.000597
243.2269	0.001168
243.4341	0.000915
243.6414	-0.001581
243.8487	0.001211
244.0560	-0.001031
244.2634	0.001972
244.4707	-0.001115
244.6781	-0.000016
244.8854	0.000809
245.0928	-0.000819
245.3002	-0.000143
245.5076	0.000809
245.7151	-0.001052
245.9225	-0.000777
246.1300	-0.000079
246.3375	0.001528
246.5449	-0.001010
246.7524	0.001845
246.9600	0.000745
247.1675	0.000132
247.3750	-0.000079
247.5826	0.001760
247.7902	-0.000227
247.9978	0.001380
248.2054	-0.000904
248.4130	0.001041
248.6206	0.001211
248.8283	0.000513
249.0359	0.000915
249.2436	0.002056
249.4513	0.000534
249.6590	0.001337
249.8667	0.000999
250.0745	0.000682
250.2822	-0.000735
250.4900	-0.000756
250.6978	-0.000566
250.9056	0.000238
251.1134	0.000555
251.3212	0.001887
251.5290	-0.000164
251.7369	-0.000100
251.9447	0.000090
252.1526	0.000788
252.3605	-0.000100
252.5684	0.001612
252.7763	-0.000143
252.9843	-0.000566
253.1922	-0.000375
253.4002	0.001211
253.6082	-0.000629
253.8162	0.000407
254.0242	-0.000819
254.2322	0.000745
254.4402	-0.000841
254.6483	0.000851
254.8564	-0.000904
255.0644	0.001105
255.2725	0.000069
255.4806	-0.000079
255.6888	-0.001200
255.8969	0.001041
256.1051	0.001612
256.3132	0.000618
256.5214	0.002944
256.7296	0.001147
256.9378	-0.000714
257.1460	0.002014
257.3543	-0.000777
257.5625	0.000407
257.7708	-0.000418
257.9791	-0.001602
258.1874	-0.000164
258.3957	0.000153
258.6040	-0.000291
258.8124	0.001760
259.0207	-0.000841
259.2291	0.001084
259.4375	0.000111
259.6459	0.001295
259.8543	-0.000185
260.0627	0.001485
260.2711	-0.000693
260.4796	0.002120
260.6881	0.000830
260.8965	0.000767
261.1050	0.001126
261.3135	0.000428
261.5221	0.001084
261.7306	0.001528
261.9392	0.000893
262.1477	0.001612
262.3563	0.001549
262.5649	-0.000016
262.7735	-0.000312
262.9822	0.001337
263.1908	0.000661
263.3995	0.001041
263.6081	0.000322
263.8168	-0.001433
264.0255	-0.001306
264.2342	0.000830
264.4429	-0.001115
264.6517	0.000153
264.8604	-0.000418
265.0692	0.000576
265.2780	-0.000523
265.4868	-0.000523
265.6956	-0.000777
265.9044	0.003917
266.1133	0.000957
266.3221	0.000259
266.5310	-0.000058
266.7399	0.000618
266.9488	0.000767
267.1577	0.000090
267.3666	-0.000756
267.5755	0.001295
267.7845	0.000851
267.9935	0.000217
268.2024	0.000957
268.4114	-0.000185
268.6205	-0.001834
268.8295	-0.001179
269.0385	-0.000883
269.2476	0.001422
269.4566	0.000344
269.6657	0.000301
269.8748	-0.000333
270.0839	0.001211
270.2931	-0.000544
270.5022	0.000597
270.7114	0.000555
270.9205	-0.000883
271.1297	-0.000375
271.3389	-0.000354
271.5481	-0.000418
271.7573	0.000618
271.9666	0.001253
272.1758	-0.000566
272.3851	-0.001581
272.5944	0.000597
272.8037	0.000640
273.0130	-0.001285
273.2223	0.001781
273.4316	-0.000798
273.6410	-0.000735
273.8504	0.001168
274.0597	0.000618
274.2691	-0.000270
274.4785	-0.000100
274.6880	0.000238
274.8974	0.000576
275.1069	0.001084
275.3163	0.001105
275.5258	-0.001581
275.7353	0.000280
275.9448	0.001168
276.1543	0.001020
276.3639	-0.001369
276.5734	-0.000122
276.7830	0.000872
276.9926	0.000238
277.2022	-0.000185
277.4118	0.000090
277.6214	-0.000523
277.8310	-0.000523
278.0407	0.000428
278.2503	0.000640
278.4600	-0.001073
278.6697	0.000576
278.8794	0.000767
279.0891	-0.000375
279.2989	0.001633
279.5086	-0.000693
279.7184	0.001084
279.9281	-0.000122
280.1379	0.001359
280.3477	0.000534
280.5576	-0.000566
280.7674	-0.000735
280.9772	-0.000312
281.1871	0.000196
281.3970	-0.000270
281.6069	-0.000227
281.8168	0.001591
282.0267	-0.001834
282.2366	0.000322
282.4466	0.000196
282.6565	0.000005
282.8665	0.000132
283.0765	0.000830
283.2865	0.000957
283.4965	0.001443
283.7065	0.000851
283.9166	-0.000841
284.1266	-0.001411
284.3367	0.000576
284.5468	-0.000185
284.7569	-0.000375
284.9670	-0.000185
285.1771	0.001316
285.3873	-0.000354
285.5974	0.000936
285.8076	0.001866
286.0178	0.000534
286.2280	0.001359
286.4382	0.001633
286.6484	-0.001306
286.8587	0.002056
287.0689	0.000132
287.2792	0.001739
287.4895	0.000618
287.6998	0.000745
287.9101	-0.001242
288.1204	0.000745
288.3308	-0.000227
288.5411	0.000492
288.7515	-0.000312
288.9619	0.000301
289.1723	0.001274
289.3827	0.002035
289.5931	-0.000693
289.8035	-0.000481
290.0140	-0.000671
290.2245	0.000872
290.4349	0.001316
290.6454	0.000322
290.8559	-0.000841
291.0665	0.002374
291.2770	0.001063
291.4875	-0.000100
291.6981	0.001168
291.9087	-0.000587
292.1193	0.000344
292.3299	0.000576
292.5405	0.001359
292.7511	-0.000312
292.9618	0.000724
293.1724	0.000957
293.3831	0.001464
293.5938	-0.000418
293.8045	0.000217
294.0152	0.001316
294.2260	-0.000164
294.4367	-0.000418
294.6475	-0.000671
294.8582	-0.000143
295.0690	0.000872
295.2798	0.000597
295.4906	-0.000079
295.7015	-0.000883
295.9123	-0.001369
296.1232	0.000238
296.3340	0.000788
296.5449	-0.001094
296.7558	-0.000587
296.9667	0.001232
297.1777	0.000048
297.3886	0.000449
297.5995	0.001507
297.8105	0.000999
298.0215	0.001274
298.2325	-0.001792
298.4435	0.000111
298.6545	0.000809
298.8656	-0.000439
299.0766	-0.000671
299.2877	-0.000544
299.4988	0.000640
299.7099	0.000428
299.9210	0.000090
300.1321	-0.000037
300.3432	0.002056
300.5544	0.000597
300.7655	-0.000375
300.9767	0.001084
301.1879	0.000978
301.3991	-0.000270
301.6103	-0.000735
301.8215	0.001337
302.0328	0.002078
302.2441	-0.000671
302.4553	0.001380
302.6666	0.000745
302.8779	0.000322
303.0892	0.000449
303.3006	0.000851
303.5119	0.000153
303.7233	0.001295
303.9346	0.000640
304.1460	0.002141
304.3574	0.000428
304.5688	0.000449
304.7803	0.000449
304.9917	0.001105
305.2031	-0.001158
305.4146	0.000555
305.6261	0.000788
305.8376	0.000153
306.0491	0.000470
306.2606	0.000470
306.4722	0.000555
306.6837	0.001147
306.8953	0.000851
307.1069	-0.001411
307.3184	-0.001538
307.5301	0.000703
307.7417	-0.001411
307.9533	0.000597
308.1650	0.000872
308.3766	0.001359
308.5883	0.000322
308.8000	0.001253
309.0117	0.001211
309.2234	0.000174
309.4351	-0.000544
309.6469	0.000026
309.8586	0.000661
310.0704	0.001274
310.2822	-0.000227
310.4940	0.001084
310.7058	-0.001961
310.9176	-0.001940
311.1295	-0.000164
311.3413	0.001697
311.5532	-0.000206
311.7651	-0.000460
311.9770	-0.000629
312.1889	0.001591
312.4008	-0.001581
312.6127	0.000280
312.8247	-0.000248
313.0366	0.000005
313.2486	0.000153
313.4606	0.001063
313.6726	-0.000650
313.8846	0.000957
314.0967	-0.000185
314.3087	-0.001285
314.5208	0.000090
314.7328	-0.000058
314.9449	-0.000735
315.1570	0.000005
315.3692	0.000618
315.5813	0.001464
315.7934	0.001041
316.0056	-0.000439
316.2177	-0.001496
316.4299	0.001845
316.6421	0.000492
316.8543	-0.000883
317.0666	-0.000798
317.2788	-0.000608
317.4911	-0.000100
317.7033	-0.001559
317.9156	0.000534
318.1279	0.000724
318.3402	-0.000502
318.5525	-0.000079
318.7649	-0.000904
318.9772	-0.001137
319.1896	0.000111
319.4019	-0.000671
319.6143	0.000661
319.8267	0.001824
320.0392	-0.001559
320.2516	0.000344
320.4640	-0.000946
320.6765	-0.000333
320.8890	0.000428
321.1014	0.000238
321.3139	0.000090
321.5265	0.001803
321.7390	0.000745
321.9515	0.000555
322.1641	-0.001834
322.3766	0.001359
322.5892	0.000830
322.8018	0.000449
323.0144	0.000661
323.2270	0.001760
323.4397	-0.001158
323.6523	-0.000037
323.8650	0.001147
324.0777	-0.000481
324.2904	0.000936
324.5031	-0.000418
324.7158	0.001126
324.9285	0.000174
325.1412	0.000322
325.3540	-0.000354
325.5668	-0.001348
325.7796	-0.000016
325.9924	0.000196
326.2052	0.000597
326.4180	0.000788
326.6308	0.000957
326.8437	-0.000819
327.0566	-0.000777
327.2694	0.000999
327.4823	-0.001475
327.6952	0.001760
327.9082	0.002796
328.1211	-0.000016
328.3340	0.000069
328.5470	-0.001158
328.7600	-0.001390
328.9730	0.000048
329.1860	0.001972
329.3990	0.000428
329.6120	-0.000967
329.8251	0.000872
330.0381	0.002733
330.2512	0.000724
330.4643	0.000386
330.6774	-0.000925
330.8905	-0.000375
331.1036	-0.000354
331.3167	-0.000608
331.5299	0.000259
331.7431	0.000174
331.9562	0.000703
332.1694	0.000788
332.3826	-0.000566
332.5959	0.001084
332.8091	-0.000883
333.0223	0.000661
333.2356	0.001760
333.4489	-0.000100
333.6622	-0.000925
333.8755	0.000407
334.0888	0.000640
334.3021	0.000301
334.5154	-0.000079
334.7288	0.000301
334.9422	0.000259
335.1555	0.001063
335.3689	0.000344
335.5823	0.001020
335.7958	0.000957
336.0092	-0.000291
336.2227	0.000174
336.4361	0.000724
336.6496	-0.000396
336.8631	0.000830
337.0766	0.000238
337.2901	0.001274
337.5036	-0.000544
337.7172	-0.000396
337.9307	-0.000629
338.1443	0.001528
338.3579	-0.000925
338.5715	0.000576
338.7851	0.001041
338.9987	-0.000756
339.2124	-0.001221
339.4260	-0.000100
339.6397	-0.001559
339.8533	-0.000206
340.0670	-0.000883
340.2807	0.000682
340.4945	0.000322
340.7082	-0.000100
340.9219	-0.001094
341.1357	0.000174
341.3495	-0.001221
341.5633	0.000259
341.7771	0.000217
341.9909	0.002585
342.2047	-0.000693
342.4185	-0.000650
342.6324	-0.000164
342.8463	-0.000587
343.0601	0.000069
343.2740	0.000026
343.4879	0.000026
343.7019	0.001232
343.9158	0.000132
344.1297	-0.000058
344.3437	-0.001179
344.5577	0.000153
344.7717	0.000344
344.9857	0.001951
345.1997	-0.000227
345.4137	0.001020
345.6277	0.001422
345.8418	-0.001200
346.0559	0.001105
346.2699	-0.001052
346.4840	0.000893
346.6981	0.000851
346.9123	0.000555
347.1264	0.000449
347.3406	-0.001602
347.5547	0.001887
347.7689	0.000915
347.9831	-0.000566
348.1973	0.000767
348.4115	0.003050
348.6257	-0.000756
348.8400	0.000915
349.0542	-0.000946
349.2685	0.000111
349.4828	0.000872
349.6971	0.000386
349.9114	-0.001665
350.1257	0.000830
350.3400	0.002035
350.5544	0.001443
350.7687	0.000238
350.9831	-0.000735
351.1975	0.000915
351.4119	0.000576
351.6263	0.000322
351.8407	-0.000206
352.0552	0.000026
352.2696	-0.000523
352.4841	0.000597
352.6986	0.001189
352.9131	-0.000058
353.1276	0.001380
353.3421	-0.000587
353.5566	0.000513
353.7712	-0.000819
353.9858	-0.000227
354.2003	0.000576
354.4149	0.000449
354.6295	0.000217
354.8441	0.000153
355.0588	0.001507
355.2734	-0.000122
355.4881	0.000132
355.7027	0.000449
355.9174	0.000830
356.1321	-0.000946
356.3468	0.001380
356.5615	-0.000079
356.7763	-0.000100
356.9910	0.001485
357.2058	0.000999
357.4206	0.001084
357.6353	0.000915
357.8501	0.001274
358.0650	0.000111
358.2798	0.001084
358.4946	0.000407
358.7095	-0.000989
358.9243	0.000661
359.1392	-0.000291
359.3541	-0.000946
359.5690	0.000915
359.7839	-0.000523
359.9989	0.001570
360.2138	0.001232
360.4288	-0.000164
360.6438	0.000005
360.8587	0.000978
361.0737	-0.001390
361.2888	0.000745
361.5038	0.000069
361.7188	-0.000481
361.9339	-0.000037
362.1489	0.000492
362.3640	0.000174
362.5791	0.001570
362.7942	0.001168
363.0093	0.000872
363.2245	0.001337
363.4396	0.000915
363.6548	-0.000904
363.8699	0.001422
364.0851	0.001824
364.3003	0.002183
364.5155	-0.001179
364.7308	0.001063
364.9460	-0.000396
365.1612	-0.000291
365.3765	-0.000333
365.5918	-0.000396
365.8071	-0.000375
366.0224	0.000724
366.2377	-0.000735
366.4530	0.000703
366.6684	-0.001454
366.8837	0.000111
367.0991	-0.001052
367.3145	0.000238
367.5299	-0.000143
367.7453	-0.000587
367.9607	-0.000566
368.1761	0.001316
368.3916	0.000640
368.6070	0.000470
368.8225	-0.002152
369.0380	-0.000756
369.2535	-0.000671
369.4690	-0.000481
369.6845	0.000217
369.9001	0.002183
370.1156	-0.000058
370.3312	-0.000333
370.5468	-0.000566
370.7624	-0.001369
370.9780	-0.000502
371.1936	0.001845
371.4092	-0.000100
371.6249	0.002078
371.8405	0.000386
372.0562	0.000407
372.2719	-0.000862
372.4876	0.000238
372.7033	0.000153
372.9190	0.000640
373.1348	-0.002025
373.3505	-0.000037
373.5663	0.000090
373.7820	0.001126
373.9978	-0.000418
374.2136	-0.001200
374.4294	-0.000819
374.6453	0.000492
374.8611	-0.001115
375.0770	0.002183
375.2928	0.000597
375.5087	-0.000016
375.7246	0.000407
375.9405	-0.000798
376.1564	0.002522
376.3724	-0.001750
376.5883	-0.000100
376.8043	0.000238
377.0203	-0.001263
377.2362	-0.000270
377.4522	-0.000185
377.6682	0.000153
377.8843	0.001549
378.1003	0.000470
378.3164	-0.001813
378.5324	0.000597
378.7485	0.001401
378.9646	0.001147
379.1807	0.001211
379.3968	0.001274
379.6129	0.000449
379.8291	0.000322
380.0452	-0.002130
380.2614	0.000724
380.4776	-0.000693
380.6938	-0.000967
380.9100	0.001380
381.1262	0.000640
381.3424	0.001126
381.5587	0.000915
381.7749	-0.000206
381.9912	-0.000100
382.2075	0.001422
382.4238	0.001084
382.6401	-0.000312
382.8564	-0.000925
383.0728	0.000492
383.2891	0.000026
383.5055	-0.000608
383.7219	0.000767
383.9382	-0.000291
384.1546	0.000661
384.3711	0.000365
384.5875	0.000365
384.8039	0.000174
385.0204	0.000005
385.2368	0.000132
385.4533	0.000745
385.6698	0.000322
385.8863	-0.001517
386.1028	-0.001707
386.3194	-0.000100
386.5359	-0.000143
386.7525	-0.000058
386.9690	0.001464
387.1856	0.000640
387.4022	-0.000544
387.6188	0.000407
387.8355	-0.000756
388.0521	0.001084
388.2687	-0.001179
388.4854	-0.000333
388.7021	-0.000587
388.9188	0.000682
389.1355	0.001507
389.3522	0.000069
389.5689	-0.000777
389.7856	0.000597
390.0024	0.000048
390.2192	0.000745
390.4359	-0.001729
390.6527	0.000661
390.8695	0.001084
391.0863	-0.000270
391.3032	-0.001919
391.5200	-0.000714
391.7369	-0.001369
391.9537	0.001739
392.1706	-0.000777
392.3875	-0.000354
392.6044	-0.000819
392.8213	0.001274
393.0383	0.000259
393.2552	0.000090
393.4722	0.000767
393.6891	0.000217
393.9061	-0.000883
394.1231	-0.000206
394.3401	-0.001686
394.5572	-0.000227
394.7742	0.000957
394.9912	0.000386
395.2083	-0.001707
395.4254	-0.000481
395.6425	-0.000629
395.8596	0.001676
396.0767	-0.000862
396.2938	-0.000587
396.5109	-0.000714
396.7281	0.000090
396.9453	0.000618
397.1624	0.001464
397.3796	-0.001031
397.5968	0.000872
397.8140	0.000661
398.0313	-0.000418
398.2485	-0.000671
398.4658	0.000893
398.6830	-0.000544
398.9003	-0.000396
399.1176	-0.001179
399.3349	0.001908
399.5522	-0.001665
399.7696	-0.000587
399.9869	-0.000608
400.2043	0.000640
400.4216	-0.000523
400.6390	-0.000608
400.8564	0.000470
401.0738	-0.000756
401.2912	-0.000883
401.5087	0.000957
401.7261	0.000470
401.9436	-0.000206
402.1610	0.000492
402.3785	-0.000481
402.5960	-0.000841
402.8135	-0.000629
403.0310	-0.001242
403.2486	-0.001581
403.4661	-0.001306
403.6837	0.000492
403.9013	0.000492
404.1189	0.001063
404.3365	-0.000143
404.5541	-0.000798
404.7717	-0.001771
404.9893	-0.000523
405.2070	-0.000566
405.4246	0.001464
405.6423	0.000428
405.8600	-0.000566
406.0777	-0.000629
406.2954	0.000005
406.5131	-0.000396
406.7309	-0.000460
406.9486	-0.000206
407.1664	-0.000693
407.3842	-0.000037
407.6020	0.000386
407.8198	-0.000418
408.0376	0.000428
408.2554	0.000280
408.4733	-0.000756
408.6911	0.001612
408.9090	-0.000418
409.1269	-0.000502
409.3448	-0.000819
409.5627	0.000132
409.7806	-0.002574
409.9985	0.001041
410.2165	0.000428
410.4344	0.000196
410.6524	-0.000967
410.8704	0.001380
411.0884	0.000174
411.3064	0.001443
411.5244	0.000724
411.7424	-0.000523
411.9605	-0.000566
412.1785	0.000111
412.3966	0.001380
412.6147	0.000661
412.8328	0.001105
413.0509	-0.000312
413.2690	0.000365
413.4871	0.000851
413.7053	0.000217
413.9234	0.001168
414.1416	-0.000375
414.3598	0.002374
414.5780	0.000301
414.7962	-0.000946
415.0144	0.000978
415.2326	0.000407
415.4509	-0.000185
415.6692	-0.000164
415.8874	0.000365
416.1057	-0.001221
416.3240	-0.000904
416.5423	0.000238
416.7606	-0.001073
416.9790	-0.000777
417.1973	0.001253
417.4157	-0.000671
417.6341	-0.000270
417.8524	-0.000523
418.0708	-0.000354
418.2893	0.001359
418.5077	-0.000862
418.7261	0.000407
418.9446	-0.001538
419.1630	-0.000333
419.3815	0.000365
419.6000	-0.000037
419.8185	-0.001877
420.0370	0.000174
420.2555	0.000999
420.4741	0.000513
420.6926	-0.001454
420.9112	-0.000100
421.1298	-0.001094
421.3483	0.000555
421.5669	-0.000248
421.7856	0.000703
422.0042	0.000365
422.2228	0.000217
422.4415	0.000492
422.6601	0.000259
422.8788	-0.002511
423.0975	-0.000333
423.3162	-0.001940
423.5349	-0.000502
423.7536	-0.000439
423.9724	-0.000122
424.1911	-0.000037
424.4099	0.002437
424.6287	0.000745
424.8475	0.000915
425.0663	0.001084
425.2851	0.001041
425.5039	0.005905
425.7228	0.000682
425.9416	-0.000248
426.1605	-0.001348
426.3793	-0.000566
426.5982	0.001253
426.8171	-0.000396
427.0361	-0.000671
427.2550	-0.000714
427.4739	-0.000523
427.6929	0.000386
427.9118	0.000365
428.1308	0.000555
428.3498	-0.000227
428.5688	-0.001052
428.7878	0.000915
429.0068	0.000893
429.2259	0.000238
429.4449	-0.000396
429.6640	0.000703
429.8831	0.000005
430.1022	0.000470
430.3213	-0.000248
430.5404	0.002416
430.7595	-0.000523
430.9787	0.000026
431.1978	0.001401
431.4170	0.000851
431.6362	0.002839
431.8553	0.001380
432.0745	0.000322
432.2938	0.000936
432.5130	-0.000989
432.7322	-0.000481
432.9515	-0.000777
433.1707	0.000576
433.3900	0.000788
433.6093	0.000026
433.8286	-0.000862
434.0479	0.000280
434.2673	0.002437
434.4866	-0.000756
434.7059	-0.000396
434.9253	0.000344
435.1447	-0.000989
435.3641	-0.001940
435.5835	-0.000016
435.8029	0.001295
436.0223	-0.001940
436.2418	0.001549
436.4612	0.000915
436.6807	-0.000016
436.9001	0.000111
437.1196	0.000597
437.3391	0.000618
437.5586	0.001274
437.7782	0.000407
437.9977	0.000492
438.2173	0.000153
438.4368	-0.000396
438.6564	0.000724
438.8760	-0.000333
439.0956	0.000661
439.3152	-0.000671
439.5348	0.000513
439.7545	0.000026
439.9741	0.000132
440.1938	-0.000693
440.4135	-0.000735
440.6331	0.001507
440.8528	-0.000291
441.0725	0.000069
441.2923	0.000048
441.5120	0.000259
441.7318	0.001020
441.9515	0.000555
442.1713	-0.000058
442.3911	-0.000671
442.6109	-0.000819
442.8307	0.000470
443.0505	-0.000291
443.2703	0.001549
443.4902	-0.000650
443.7101	-0.000481
443.9299	-0.001602
444.1498	0.000576
444.3697	0.001380
444.5896	0.002056
444.8095	0.001168
445.0295	0.001359
445.2494	-0.000016
445.4694	0.002078
445.6894	0.000196
445.9093	-0.001263
446.1293	0.001591
446.3493	0.004763
446.5694	-0.000122
446.7894	-0.001433
447.0094	-0.000227
447.2295	0.000936
447.4496	0.000788
447.6696	-0.000460
447.8897	-0.000270
448.1098	0.000661
448.3300	0.001676
448.5501	0.001781
448.7702	0.001781
448.9904	-0.000671
449.2106	-0.000608
449.4307	0.000682
449.6509	0.001316
449.8711	0.000830
450.0914	-0.000291
450.3116	0.000449
450.5318	0.001232
450.7521	-0.000566
450.9724	-0.000418
451.1926	-0.001834
451.4129	-0.002088
451.6332	0.000026
451.8535	-0.000925
452.0739	-0.000037
452.2942	-0.000143
452.5146	0.000132
452.7349	0.001274
452.9553	0.001041
453.1757	-0.000523
453.3961	0.001063
453.6165	-0.001454
453.8369	0.001020
454.0574	-0.000375
454.2778	0.000344
454.4983	0.000576
454.7188	0.000322
454.9393	-0.002257
455.1597	0.000830
455.3803	0.000597
455.6008	0.000005
455.8213	-0.001052
456.0419	-0.001538
456.2624	-0.000185
456.4830	0.000513
456.7036	-0.000375
456.9242	0.000576
457.1448	-0.000206
457.3654	0.000915
457.5860	0.001126
457.8067	-0.000735
458.0274	0.000957
458.2480	0.000597
458.4687	0.000090
458.6894	-0.000164
458.9101	-0.000735
459.1308	0.000301
459.3516	-0.001665
459.5723	-0.000185
459.7931	-0.000016
460.0138	0.000069
460.2346	-0.001073
460.4554	0.001337
460.6762	-0.000037
460.8970	-0.000671
461.1178	-0.000100
461.3387	-0.000270
461.5595	-0.001094
461.7804	-0.000185
462.0013	0.000682
462.2222	0.000767
462.4431	0.000407
462.6640	-0.000312
462.8849	0.000703
463.1059	0.000365
463.3268	-0.000143
463.5478	-0.000439
463.7687	0.002627
463.9897	-0.000650
464.2107	-0.002469
464.4317	-0.001411
464.6528	0.000513
464.8738	0.001718
465.0948	-0.001496
465.3159	0.000069
465.5370	0.000026
465.7581	-0.000439
465.9792	-0.000650
466.2003	-0.002194
466.4214	0.002268
466.6425	0.000026
466.8637	0.000301
467.0848	0.000153
467.3060	0.000999
467.5272	0.000661
467.7484	-0.001094
467.9696	-0.000439
468.1908	-0.000629
468.4120	0.001485
468.6333	0.000682
468.8545	0.001020
469.0758	-0.000502
469.2970	-0.000016
469.5183	-0.000079
469.7396	0.000280
469.9610	-0.000819
470.1823	0.000513
470.4036	0.001147
470.6250	0.002078
470.8463	0.001020
471.0677	-0.000756
471.2891	-0.000185
471.5105	0.002712
471.7319	-0.000756
471.9533	-0.001115
472.1748	0.002944
472.3962	0.000026
472.6177	0.000048
472.8391	-0.000671
473.0606	0.000344
473.2821	0.000174
473.5036	-0.000819
473.7251	-0.000037
473.9467	0.001972
474.1682	-0.000037
474.3898	0.000872
474.6113	0.000132
474.8329	0.000492
475.0545	-0.000354
475.2761	-0.000375
475.4977	-0.000100
475.7193	-0.000671
475.9410	-0.000143
476.1626	0.000788
476.3843	0.000174
476.6060	0.000830
476.8277	0.000703
477.0494	-0.000650
477.2711	0.006962
477.4928	0.000597
477.7145	-0.000777
477.9363	0.000238
478.1580	0.000090
478.3798	0.000259
478.6016	0.000322
478.8234	-0.000058
479.0452	-0.002025
479.2670	-0.000227
479.4888	-0.000523
479.7107	0.001020
479.9325	-0.000946
480.1544	0.000196
480.3763	0.000386
480.5982	0.000386
480.8201	0.001697
481.0420	-0.000227
481.2639	-0.000354
481.4859	0.000386
481.7078	-0.000481
481.9298	-0.000248
482.1517	-0.000756
482.3737	0.000365
482.5957	0.000745
482.8177	0.000661
483.0398	0.000111
483.2618	0.001105
483.4838	0.001189
483.7059	0.000915
483.9280	-0.000629
484.1501	0.000217
484.3721	0.001824
484.5943	0.000153
484.8164	-0.001010
485.0385	0.000893
485.2606	0.001507
485.4828	0.000767
485.7050	-0.001855
485.9271	0.000936
486.1493	0.000936
486.3715	0.000936
486.5937	0.000999
486.8160	0.000048
487.0382	0.001422
487.2605	0.001084
487.4827	-0.000185
487.7050	0.000851
487.9273	0.000978
488.1496	-0.000502
488.3719	-0.000989
488.5942	-0.000143
488.8165	-0.000946
489.0389	0.000513
489.2612	0.000196
489.4836	0.001549
489.7060	-0.001390
489.9284	0.000407
490.1508	-0.000206
490.3732	0.000111
490.5956	-0.000439
490.8180	0.001464
491.0405	0.000301
491.2630	0.000301
491.4854	0.000576
491.7079	-0.000227
491.9304	0.000048
492.1529	0.000217
492.3755	-0.000693
492.5980	0.000830
492.8205	0.000196
493.0431	0.001020
493.2657	-0.000312
493.4882	0.000555
493.7108	-0.000354
493.9334	0.000301
494.1561	0.000618
494.3787	0.000428
494.6013	0.000682
494.8240	-0.000312
495.0466	0.001549
495.2693	-0.001602
495.4920	-0.001137
495.7147	0.001951
495.9374	-0.000058
496.1601	0.002289
496.3829	-0.001031
496.6056	0.000301
496.8284	-0.001242
497.0511	-0.000333
497.2739	0.000344
497.4967	0.000365
497.7195	0.000682
497.9423	0.000640
498.1652	-0.002046
498.3880	-0.000100
498.6109	0.000407
498.8337	-0.000100
499.0566	0.000090
499.2795	0.001041
499.5024	0.001041
499.7253	0.000259
499.9482	0.000365
500.1712	0.000322
500.3941	-0.000798
500.6171	0.000872
500.8400	0.000174
501.0630	-0.000481
501.2860	-0.000312
501.5090	0.000069
501.7320	0.000428
501.9551	0.001507
502.1781	-0.001137
502.4012	0.000851
502.6242	0.001845
502.8473	0.000978
503.0704	0.001739
503.2935	-0.000164
503.5166	0.001570
503.7397	0.000872
503.9628	0.000365
504.1860	-0.001010
504.4092	-0.002384
504.6323	0.001063
504.8555	-0.000312
505.0787	-0.000418
505.3019	0.001591
505.5251	-0.000544
505.7483	-0.000270
505.9716	-0.001665
506.1948	0.000238
506.4181	0.000365
506.6414	0.001803
506.8647	-0.001263
507.0880	0.002648
507.3113	0.001443
507.5346	-0.001750
507.7579	0.000534
507.9813	-0.000396
508.2046	0.002733
508.4280	0.001126
508.6514	0.000322
508.8748	0.000386
509.0982	0.000217
509.3216	0.001633
509.5450	0.001084
509.7685	-0.001454
509.9919	0.000365
510.2154	-0.000502
510.4388	-0.000862
510.6623	0.000090
510.8858	-0.000608
511.1093	-0.000079
511.3329	0.000196
511.5564	0.000132
511.7799	0.000153
512.0035	0.002352
512.2270	-0.000185
512.4506	-0.000037
512.6742	0.000640
512.8978	-0.000693
513.1214	-0.000164
513.3451	-0.000523
513.5687	-0.000333
513.7923	-0.000862
514.0160	0.002078
514.2397	-0.002173
514.4634	0.000322
514.6871	0.000005
514.9108	0.001676
515.1345	0.000407
515.3582	0.002035
515.5819	0.000999
515.8057	-0.000841
516.0295	-0.000925
516.2532	0.000111
516.4770	-0.002152
516.7008	-0.001263
516.9246	-0.000587
517.1485	-0.000206
517.3723	-0.001052
517.5961	0.000661
517.8200	-0.000185
518.0439	0.000851
518.2677	-0.000798
518.4916	-0.000629
518.7155	0.001147
518.9395	0.000365
519.1634	0.001739
519.3873	0.001380
519.6113	0.001739
519.8352	0.001993
520.0592	0.000788
520.2832	-0.000967
520.5072	0.000661
520.7312	-0.001158
520.9552	-0.000016
521.1792	0.000915
521.4033	0.001232
521.6273	0.000238
521.8514	0.000301
522.0755	0.001105
522.2996	-0.000396
522.5237	0.000005
522.7478	0.000534
522.9719	-0.001285
523.1960	0.001549
523.4202	0.000153
523.6443	0.001041
523.8685	-0.000312
524.0927	-0.000798
524.3169	-0.002109
524.5411	-0.001750
524.7653	-0.000185
524.9895	0.000576
525.2138	-0.001411
525.4380	0.000259
525.6623	-0.002701
525.8865	-0.000037
526.1108	0.000640
526.3351	0.000026
526.5594	0.000026
526.7837	0.000470
527.0081	0.000576
527.2324	0.000132
527.4568	-0.000671
527.6811	0.000174
527.9055	0.000196
528.1299	-0.000248
528.3543	-0.000291
528.5787	0.001084
528.8031	0.000555
529.0276	0.001824
529.2520	-0.000354
529.4765	0.000069
529.7009	-0.000270
529.9254	0.001295
530.1499	0.001824
530.3744	0.001020
530.5989	-0.000841
530.8234	0.000534
531.0480	-0.000291
531.2725	-0.000058
531.4971	0.000682
531.7217	-0.000693
531.9462	-0.001348
532.1708	-0.001665
532.3954	0.000111
532.6200	0.000069
532.8447	-0.000862
533.0693	-0.000058
533.2940	-0.000079
533.5186	-0.000523
533.7433	0.000365
533.9680	-0.000544
534.1927	-0.000037
534.4174	0.001168
534.6421	0.000301
534.8668	0.000048
535.0916	0.001633
535.3163	-0.000925
535.5411	0.000090
535.7659	0.000534
535.9907	0.000597
536.2155	-0.000291
536.4403	-0.000122
536.6651	0.000936
536.8899	0.000957
537.1148	0.000809
537.3396	-0.001369
537.5645	0.001295
537.7894	0.000322
538.0143	0.000555
538.2392	0.000936
538.4641	0.001020
538.6890	-0.000608
538.9139	0.000893
539.1389	0.000492
539.3638	-0.000946
539.5888	0.001485
539.8138	0.001422
540.0388	-0.000693
540.2638	-0.000544
540.4888	-0.000671
540.7138	0.000576
540.9389	-0.001644
541.1639	0.002691
541.3890	0.001189
541.6140	0.000661
541.8391	0.002078
542.0642	0.000788
542.2893	-0.001538
542.5144	0.001211
542.7396	-0.000037
542.9647	0.001485
543.1899	0.000449
543.4150	0.000048
543.6402	0.000851
543.8654	0.001549
544.0906	-0.000481
544.3158	0.000280
544.5410	-0.001517
544.7662	-0.000883
544.9915	-0.000333
545.2167	0.000640
545.4420	-0.000481
545.6673	-0.000481
545.8926	-0.000270
546.1179	-0.000608
546.3432	-0.000058
546.5685	0.000449
546.7938	0.000026
547.0192	0.000153
547.2445	0.001126
547.4699	0.000915
547.6953	0.001464
547.9206	0.000872
548.1460	-0.001073
548.3715	0.000132
548.5969	0.000597
548.8223	0.000767
549.0478	-0.000460
549.2732	-0.000185
549.4987	-0.001137
549.7242	-0.000608
549.9496	-0.000862
550.1751	0.000090
550.4007	0.000386
550.6262	0.000999
550.8517	0.000428
551.0773	0.000555
551.3028	0.001253
551.5284	0.004446
551.7540	0.000005
551.9796	0.000915
552.2052	-0.000819
552.4308	0.000301
552.6564	0.000238
552.8820	0.002268
553.1077	0.002733
553.3333	-0.001052
553.5590	0.001528
553.7847	0.000830
554.0104	-0.000439
554.2361	0.001422
554.4618	-0.001285
554.6875	-0.000122
554.9132	0.001020
555.1390	-0.001369
555.3648	0.000597
555.5905	-0.000333
555.8163	0.002966
556.0421	0.000682
556.2679	0.000111
556.4937	0.000767
556.7195	-0.001327
556.9454	0.001253
557.1712	0.000090
557.3971	0.000915
557.6230	0.003029
557.8488	-0.000439
558.0747	0.001422
558.3006	-0.001094
558.5266	-0.000312
558.7525	-0.000989
558.9784	-0.001031
559.2044	0.000449
559.4303	0.000132
559.6563	0.001274
559.8823	-0.000693
560.1083	0.001253
560.3343	0.000661
560.5603	0.001485
560.7863	0.000069
561.0124	-0.000248
561.2384	-0.000756
561.4645	-0.001496
561.6905	-0.000058
561.9166	-0.000756
562.1427	-0.001242
562.3688	-0.000206
562.5949	0.001612
562.8211	-0.000375
563.0472	0.001887
563.2733	0.000534
563.4995	-0.001686
563.7257	0.000830
563.9519	0.000111
564.1781	0.000513
564.4043	0.000069
564.6305	0.000386
564.8567	0.000618
565.0829	0.000555
565.3092	0.000048
565.5355	0.000322
565.7617	-0.000185
565.9880	0.001464
566.2143	0.000513
566.4406	0.001507
566.6669	-0.001263
566.8932	0.000978
567.1196	-0.000693
567.3459	0.000640
567.5723	0.000872
567.7987	0.000999
568.0250	-0.000523
568.2514	0.000026
568.4778	-0.001792
568.7043	0.001422
568.9307	-0.000439
569.1571	0.001612
569.3836	0.000259
569.6100	-0.000756
569.8365	-0.000439
570.0630	0.000872
570.2895	0.000217
570.5160	0.001739
570.7425	-0.001115
570.9690	-0.000375
571.1956	-0.000608
571.4221	0.001401
571.6487	-0.000608
571.8752	-0.000058
572.1018	0.000280
572.3284	-0.000418
572.5550	-0.000671
572.7816	0.000132
573.0082	0.000597
573.2349	0.000703
573.4615	0.000449
573.6882	0.000936
573.9149	-0.000460
574.1415	-0.000312
574.3682	0.000196
574.5949	0.001232
574.8216	0.000153
575.0484	0.000809
575.2751	-0.000777
575.5018	0.001697
575.7286	-0.001179
575.9554	0.000661
576.1821	0.000344
576.4089	-0.000418
576.6357	0.000682
576.8626	-0.001158
577.0894	-0.000566
577.3162	-0.000523
577.5431	-0.000798
577.7699	0.001020
577.9968	0.000576
578.2237	-0.000798
578.4505	0.000745
578.6774	-0.000502
578.9044	0.001084
579.1313	-0.001771
579.3582	-0.000418
579.5851	0.000788
579.8121	0.001422
580.0391	-0.001094
580.2660	-0.001200
580.4930	-0.000270
580.7200	-0.000819
580.9470	0.000407
581.1741	0.001295
581.4011	0.000069
581.6281	-0.000544
581.8552	0.001105
582.0822	0.000111
582.3093	0.000238
582.5364	-0.000333
582.7635	0.000217
582.9906	-0.000460
583.2177	0.000682
583.4449	-0.000925
583.6720	-0.000418
583.8991	0.000449
584.1263	0.001528
584.3535	-0.000164
584.5807	-0.001898
584.8079	-0.000079
585.0351	-0.000946
585.2623	0.000767
585.4895	0.001316
585.7167	0.000111
585.9440	-0.001052
586.1713	0.001168
586.3985	-0.000481
586.6258	0.000132
586.8531	-0.001306
587.0804	-0.000270
587.3077	-0.000671
587.5350	0.000153
587.7624	0.000915
587.9897	-0.000058
588.2171	-0.001285
588.4445	-0.000037
588.6718	0.000449
588.8992	-0.000460
589.1266	0.000174
589.3540	0.001380
589.5815	0.000957
589.8089	0.001041
590.0363	0.000724
590.2638	0.000259
590.4913	0.000745
590.7187	-0.000439
590.9462	0.000344
591.1737	0.001020
591.4012	-0.000587
591.6288	0.001951
591.8563	-0.000122
592.0838	-0.000925
592.3114	-0.000587
592.5389	0.000005
592.7665	-0.000714
592.9941	-0.000016
593.2217	0.000809
593.4493	0.000280
593.6769	-0.000735
593.9046	-0.000566
594.1322	0.000322
594.3598	-0.001813
594.5875	0.000111
594.8152	0.001803
595.0429	0.000957
595.2705	0.000830
595.4983	-0.000693
595.7260	-0.000523
595.9537	-0.000439
596.1814	0.001803
596.4092	0.000153
596.6369	0.000111
596.8647	-0.000122
597.0925	0.000069
597.3203	-0.000037
597.5481	0.000618
597.7759	0.000111
598.0037	0.000872
598.2315	-0.000270
598.4594	0.000470
598.6872	0.000280
598.9151	-0.000502
599.1430	0.000851
599.3709	0.001655
599.5988	0.000365
599.8267	-0.001686
600.0546	0.000365
600.2825	0.001041
600.5105	-0.000502
600.7384	-0.000016
600.9664	0.000576
601.1944	0.000788
601.4223	-0.000206
601.6503	0.002014
601.8783	0.000111
602.1064	-0.000206
602.3344	0.000196
602.5624	-0.000925
602.7905	0.000386
603.0185	0.000090
603.2466	0.000196
603.4747	-0.000714
603.7028	0.002352
603.9309	-0.000523
604.1590	0.000217
604.3871	-0.000312
604.6152	0.000005
604.8434	0.000576
605.0715	-0.001855
605.2997	0.000322
605.5279	-0.000523
605.7561	0.000830
605.9843	-0.000270
606.2125	-0.000883
606.4407	-0.001052
606.6689	-0.000523
606.8972	0.000111
607.1254	0.001189
607.3537	0.000851
607.5819	0.000661
607.8102	-0.001327
608.0385	-0.000227
608.2668	0.001253
608.4951	0.001507
608.7235	-0.000819
608.9518	0.001866
609.1801	-0.000396
609.4085	0.000809
609.6369	-0.000037
609.8653	0.000196
610.0936	-0.000650
610.3220	-0.000777
610.5505	-0.000544
610.7789	0.000682
611.0073	0.000153
611.2357	0.000069
611.4642	0.000534
611.6927	0.000048
611.9211	-0.000396
612.1496	0.000872
612.3781	-0.000206
612.6066	-0.000481
612.8351	0.000428
613.0637	0.002162
613.2922	-0.000460
613.5208	0.002120
613.7493	0.000724
613.9779	0.000386
614.2065	-0.000037
614.4351	-0.001665
614.6637	-0.000862
614.8923	0.001549
615.1209	-0.002300
615.3495	-0.000248
615.5782	-0.001073
615.8068	0.000788
616.0355	0.002120
616.2642	0.000576
616.4929	0.001591
616.7216	0.000280
616.9503	0.001253
617.1790	0.000111
617.4077	0.000513
617.6365	-0.000566
617.8652	0.000153
618.0940	0.000893
618.3227	0.000196
618.5515	0.000386
618.7803	-0.000037
619.0091	0.001295
619.2379	-0.001538
619.4667	-0.000354
619.6956	-0.001073
619.9244	-0.000693
620.1533	0.001443
620.3821	0.000301
620.6110	-0.000058
620.8399	0.000978
621.0688	-0.000418
621.2977	0.000767
621.5266	0.000492
621.7556	0.000196
621.9845	-0.000608
622.2135	0.001676
622.4424	0.000238
622.6714	0.000048
622.9004	-0.000819
623.1294	0.002289
623.3584	0.000745
623.5874	0.000153
623.8164	0.000724
624.0454	-0.001855
624.2745	-0.000396
624.5035	0.000153
624.7326	0.000470
624.9617	-0.000650
625.1908	-0.000270
625.4199	-0.001242
625.6490	0.000597
625.8781	0.001041
626.1072	-0.000989
626.3364	-0.000819
626.5655	-0.001263
626.7947	-0.000164
627.0238	-0.000248
627.2530	0.002014
627.4822	0.000428
627.7114	0.000470
627.9406	-0.000418
628.1698	0.000661
628.3991	-0.000227
628.6283	-0.000650
628.8576	-0.000418
629.0868	0.001422
629.3161	0.000026
629.5454	-0.000143
629.7747	0.000893
630.0040	0.000238
630.2333	0.001570
630.4626	0.001126
630.6920	0.000492
630.9213	0.000111
631.1507	0.000153
631.3801	0.000090
631.6094	0.000174
631.8388	0.002078
632.0682	-0.001306
632.2976	0.000682
632.5271	0.000703
632.7565	-0.000143
632.9859	-0.000227
633.2154	0.001337
633.4448	0.000174
633.6743	0.001739
633.9038	0.000238
634.1333	0.000534
634.3628	0.001168
634.5923	0.001020
634.8218	-0.000777
635.0514	0.000407
635.2809	0.000026
635.5105	0.000026
635.7400	-0.001771
635.9696	-0.000798
636.1992	0.000830
636.4288	0.000745
636.6584	0.001676
636.8880	0.001020
637.1177	-0.000248
637.3473	0.001274
637.5770	0.000174
637.8066	-0.000883
638.0363	-0.001538
638.2660	0.000597
638.4957	-0.000164
638.7254	0.000915
638.9551	-0.000058
639.1848	-0.000270
639.4145	0.000576
639.6443	0.000533
639.8740	0.001433
640.1038	-0.000652
640.3336	0.002671
640.5633	-0.001252
640.7931	0.001542
641.0229	-0.000857
641.2528	-0.000185
641.4826	-0.001078
641.7124	-0.000463
641.9423	-0.001333
642.1721	0.000091
642.4020	-0.000314
642.6319	0.000617
642.8617	-0.000755
643.0916	0.000301
643.3216	0.000827
643.5515	0.000918
643.7814	-0.000704
644.0113	0.001172
644.2413	0.000827
644.4712	0.002238
644.7012	-0.001537
644.9312	0.001367
645.1612	-0.000758
645.3912	0.001195
645.6212	0.000251
645.8512	0.000028
646.0812	-0.001914
646.3113	0.000899
646.5413	-0.001037
646.7714	0.000362
647.0015	0.000540
647.2316	0.000449
647.4616	0.000939
647.6918	-0.000106
647.9219	0.000006
648.1520	0.001479
648.3821	0.000642
648.6123	0.000798
648.8424	-0.000147
649.0726	0.001238
649.3028	-0.000168
649.5329	-0.001560
649.7631	0.000710
649.9933	-0.000846
650.2236	-0.000184
650.4538	0.001269
650.6840	0.000005
650.9143	0.000346
651.1445	0.000197
651.3748	0.001414
651.6051	-0.001162
651.8354	0.002345
652.0657	0.000963
652.2960	0.000386
652.5263	-0.002735
652.7566	0.000412
652.9870	0.000005
653.2173	-0.000438
653.4477	-0.000080
653.6780	0.000113
653.9084	0.000983
654.1388	0.001714
654.3692	0.000472
654.5996	-0.002155
654.8300	0.000241
655.0605	-0.000678
655.2909	-0.000424
655.5213	0.000738
655.7518	-0.001180
655.9823	0.000884
656.2128	-0.000377
656.4433	0.001091
656.6738	-0.000675
656.9043	-0.000359
657.1348	-0.000840
657.3653	-0.000506
657.5959	0.001240
657.8264	0.002035
658.0570	0.000026
658.2875	0.002081
658.5181	0.000448
658.7487	0.000996
658.9793	0.000471
659.2099	0.000686
659.4406	0.000453
659.6712	0.001980
659.9018	-0.001223
660.1325	0.000175
660.3632	-0.001668
660.5938	-0.000818
660.8245	0.000876
661.0552	0.001422
661.2859	-0.001944
661.5166	0.000427
661.7474	0.001298
661.9781	0.000938
662.2088	0.000344
662.4396	0.000361
662.6704	-0.001292
662.9011	0.003338
663.1319	0.000069
663.3627	-0.000460
663.5935	-0.001001
663.8243	-0.000079
664.0552	-0.000609
664.2860	-0.000514
664.5168	0.001590
664.7477	0.000552
664.9786	0.001084
665.2094	0.000658
665.4403	0.000632
665.6712	-0.001044
665.9021	-0.000287
666.1330	0.000342
666.3640	-0.001450
666.5949	0.000851
666.8259	-0.000374
667.0568	0.000684
667.2878	0.000342
667.5188	-0.001114
667.7497	-0.000544
667.9807	0.002146
668.2117	-0.000498
668.4428	0.000428
668.6738	0.000703
668.9048	0.000217
669.1359	0.000280
669.3669	0.000196
669.5980	-0.000841
669.8291	-0.000164
670.0602	0.000132
670.2913	-0.000756
670.5224	-0.000079
670.7535	0.002818
670.9846	0.000132
671.2157	0.001105
671.4469	-0.000608
671.6781	0.001951
671.9092	-0.000396
672.1404	0.000851
672.3716	-0.000819
672.6028	0.000576
672.8340	-0.001200
673.0652	0.000005
673.2964	0.001253
673.5277	0.000978
673.7589	0.000470
673.9902	0.000196
674.2214	-0.000206
674.4527	-0.001094
674.6840	-0.000016
674.9153	-0.000100
675.1466	0.000111
675.3779	0.000196
675.6093	0.000788
675.8406	0.000618
676.0719	-0.000333
676.3033	-0.000925
676.5347	0.000026
676.7661	-0.001031
676.9974	0.001718
677.2288	-0.000185
677.4602	-0.000333
677.6917	-0.000671
677.9231	0.000365
678.1545	0.002712
678.3860	-0.000904
678.6174	-0.002574
678.8489	-0.002426
679.0804	0.000386
679.3119	-0.000735
679.5434	0.000724
679.7749	-0.000312
680.0064	0.001211
680.2379	-0.000989
680.4694	0.001528
680.7010	0.000322
680.9325	-0.001771
681.1641	-0.001031
681.3957	-0.000418
681.6273	-0.000819
681.8589	0.000365
682.0905	-0.000037
682.3221	0.001824
682.5537	0.000915
682.7854	-0.000481
683.0170	-0.000270
683.2487	-0.000777
683.4803	0.000513
683.7120	0.000555
683.9437	-0.001475
684.1754	0.001041
684.4071	-0.000819
684.6388	0.000851
684.8705	-0.000523
685.1023	-0.000100
685.3340	-0.000566
685.5658	0.001824
685.7975	-0.000777
686.0293	0.000026
686.2611	0.000788
686.4929	0.001274
686.7247	0.000301
686.9565	-0.000904
687.1883	0.000344
687.4202	-0.000904
687.6520	0.000661
687.8838	0.000470
688.1157	-0.000100
688.3476	0.000576
688.5795	0.001528
688.8114	-0.000418
689.0433	0.000090
689.2752	0.001063
689.5071	-0.000333
689.7390	0.000576
689.9710	0.000893
690.2029	-0.001644
690.4349	-0.001285
690.6669	0.000724
690.8988	0.000026
691.1308	-0.000312
691.3628	-0.001792
691.5948	0.000196
691.8269	-0.001538
692.0589	0.001063
692.2909	0.000090
692.5230	-0.000904
692.7550	0.000407
692.9871	0.000872
693.2192	0.001063
693.4513	0.000280
693.6834	0.002395
693.9155	0.000703
694.1476	-0.000777
694.3797	0.000682
694.6119	0.000534
694.8440	0.000936
695.0762	-0.002363
695.3083	-0.001581
695.5405	0.000618
695.7727	0.000322
696.0049	0.001570
696.2371	-0.001411
696.4693	-0.001475
696.7016	0.000048
696.9338	0.000196
697.1660	-0.000989
697.3983	0.001020
697.6306	0.000640
697.8628	-0.000883
698.0951	0.000788
698.3274	-0.000544
698.5597	-0.001644
698.7920	0.005757
699.0243	0.000661
699.2567	-0.001073
699.4890	-0.000650
699.7214	0.000428
699.9537	0.000872
700.1861	0.001422
700.4185	-0.000946
700.6509	-0.000312
700.8833	-0.000671
701.1157	0.000005
701.3481	0.000090
701.5806	-0.000439
701.8130	-0.000862
702.0454	-0.000079
702.2779	0.000682
702.5104	-0.000333
702.7429	-0.000439
702.9753	0.000597
703.2078	-0.002236
703.4403	-0.000354
703.6729	0.001676
703.9054	-0.000439
704.1379	-0.000566
704.3705	-0.000164
704.6030	0.001570
704.8356	0.001612
705.0682	-0.000883
705.3008	0.000745
705.5334	-0.000671
705.7660	0.000386
705.9986	0.000407
706.2312	0.000788
706.4638	0.000048
706.6965	0.001760
706.9291	-0.000418
707.1618	-0.000185
707.3945	-0.000756
707.6272	0.000217
707.8599	-0.001855
708.0926	-0.000587
708.3253	0.000386
708.5580	-0.000777
708.7907	-0.000227
709.0235	0.001126
709.2562	0.000576
709.4890	-0.001348
709.7217	-0.001792
709.9545	0.000745
710.1873	0.000111
710.4201	-0.000819
710.6529	-0.000523
710.8857	0.000301
711.1186	0.000238
711.3514	-0.000037
711.5842	-0.001919
711.8171	0.000957
712.0500	-0.000946
712.2828	-0.000100
712.5157	-0.000671
712.7486	0.000597
712.9815	0.000682
713.2144	-0.000100
713.4474	0.000470
713.6803	0.000386
713.9132	0.000576
714.1462	-0.000164
714.3791	0.000365
714.6121	0.000788
714.8451	-0.001771
715.0781	-0.001031
715.3111	0.000153
715.5441	0.002204
715.7771	-0.000143
716.0102	0.001168
716.2432	-0.000671
716.4762	0.001274
716.7093	-0.000587
716.9424	-0.000016
717.1754	-0.000291
717.4085	0.001570
717.6416	-0.000481
717.8747	-0.002596
718.1078	-0.001559
718.3410	0.000428
718.5741	0.000978
718.8072	-0.000904
719.0404	-0.000333
719.2736	0.002331
719.5067	0.000407
719.7399	-0.000756
719.9731	-0.001348
720.2063	-0.000206
720.4395	0.001105
720.6727	0.000259
720.9060	-0.001813
721.1392	0.000048
721.3725	0.001887
721.6057	0.001612
721.8390	0.001380
722.0723	0.001084
722.3055	-0.000312
722.5388	0.001464
722.7721	-0.002046
723.0055	0.002226
723.2388	0.000153
723.4721	0.002416
723.7055	-0.000375
723.9388	0.000809
724.1722	-0.001285
724.4056	0.000322
724.6389	-0.000100
724.8723	-0.001433
725.1057	0.000534
725.3391	0.002099
725.5726	-0.000841
725.8060	0.001697
726.0394	0.000915
726.2729	-0.001369
726.5063	0.001781
726.7398	0.000999
726.9733	-0.000777
727.2068	0.000957
727.4403	0.000407
727.6738	0.001041
727.9073	0.001401
728.1408	0.000365
728.3743	-0.001475
728.6079	0.000301
728.8414	-0.001094
729.0750	0.001760
729.3086	0.000872
729.5421	-0.000122
729.7757	0.000872
730.0093	0.001887
730.2429	-0.001094
730.4766	-0.000989
730.7102	0.000936
730.9438	-0.000143
731.1775	0.000344
731.4111	0.000492
731.6448	0.002352
731.8785	0.000217
732.1122	0.000618
732.3458	-0.000016
732.5795	0.000893
732.8133	-0.000100
733.0470	-0.000819
733.2807	-0.000481
733.5145	-0.000481
733.7482	-0.000883
733.9820	-0.002152
734.2157	0.000048
734.4495	0.001189
734.6833	0.000280
734.9171	0.001570
735.1509	0.000090
735.3847	0.000745
735.6185	0.001147
735.8524	-0.000502
736.0862	-0.000185
736.3201	-0.000037
736.5539	0.000322
736.7878	0.001612
737.0217	-0.000185
737.2556	0.000618
737.4895	-0.000143
737.7234	-0.000714
737.9573	0.000534
738.1912	-0.001792
738.4252	0.000492
738.6591	-0.000185
738.8931	0.000767
739.1271	-0.000439
739.3610	0.000322
739.5950	-0.000100
739.8290	0.000238
740.0630	-0.000058
740.2970	0.000153
740.5310	0.000555
740.7651	-0.000079
740.9991	-0.000375
741.2332	0.001041
741.4672	0.001189
741.7013	0.001147
741.9354	0.000682
742.1695	0.002183
742.4036	-0.000058
742.6377	-0.000206
742.8718	0.000026
743.1059	0.000470
743.3400	0.000196
743.5742	0.000851
743.8083	0.000238
744.0425	-0.000925
744.2767	0.000745
744.5108	-0.000143
744.7450	0.000132
744.9792	0.001591
745.2134	0.000217
745.4477	-0.001771
745.6819	-0.000756
745.9161	0.000661
746.1504	0.001612
746.3846	0.001063
746.6189	0.000576
746.8532	0.001063
747.0874	0.000365
747.3217	0.002416
747.5560	-0.000375
747.7903	-0.000143
748.0247	-0.001496
748.2590	0.000069
748.4933	0.000005
748.7277	-0.000925
748.9620	0.000238
749.1964	0.001105
749.4308	-0.001242
749.6652	0.000005
749.8995	-0.000946
750.1339	0.001739
750.3684	-0.000079
750.6028	0.001464
750.8372	-0.001982
751.0717	-0.000502
751.3061	-0.000058
751.5406	-0.001031
751.7750	-0.000671
752.0095	0.000915
752.2440	-0.000333
752.4785	0.001105
752.7130	0.000936
752.9475	0.000449
753.1820	0.001591
753.4166	-0.001094
753.6511	-0.000248
753.8856	0.000936
754.1202	-0.000291
754.3548	0.001189
754.5894	-0.000100
754.8239	-0.000862
755.0585	-0.000777
755.2931	-0.002300
755.5278	-0.000735
755.7624	-0.000100
755.9970	-0.001792
756.2317	-0.000523
756.4663	0.000767
756.7010	-0.000354
756.9356	0.002289
757.1703	-0.001581
757.4050	0.000428
757.6397	0.001084
757.8744	0.001316
758.1091	-0.000227
758.3438	0.000428
758.5786	0.000069
758.8133	0.001041
759.0481	0.000005
759.2828	-0.000608
759.5176	0.000238
759.7524	-0.001707
759.9872	-0.000185
760.2220	-0.000333
760.4568	-0.000544
760.6916	0.000809
760.9264	-0.000270
761.1613	0.000872
761.3961	0.000936
761.6310	0.000322
761.8658	0.000492
762.1007	0.000872
762.3356	0.001422
762.5705	0.000344
762.8054	-0.000079
763.0403	-0.001306
763.2752	0.000132
763.5101	0.000132
763.7450	0.000069
763.9800	0.000428
764.2149	0.001739
764.4499	-0.000396
764.6849	0.000005
764.9198	0.000661
765.1548	-0.000756
765.3898	0.001866
765.6248	0.000788
765.8599	-0.001433
766.0949	-0.000270
766.3299	-0.000100
766.5650	-0.000502
766.8000	-0.001517
767.0351	0.000513
767.2701	-0.000566
767.5052	0.000470
767.7403	0.001845
767.9754	-0.002511
768.2105	0.001359
768.4456	-0.000396
768.6808	0.002120
768.9159	-0.000523
769.1510	0.001253
769.3862	0.000280
769.6214	0.002014
769.8565	0.001612
770.0917	0.000576
770.3269	0.000576
770.5621	0.000153
770.7973	0.001274
771.0325	-0.000143
771.2677	-0.001686
771.5030	0.001126
771.7382	-0.001200
771.9735	-0.000185
772.2087	-0.000164
772.4440	0.000048
772.6793	-0.000989
772.9146	0.000069
773.1499	-0.001327
773.3852	-0.000946
773.6205	0.000915
773.8558	-0.000185
774.0911	0.001337
774.3265	0.000534
774.5618	0.000555
774.7972	0.000344
775.0326	0.000618
775.2679	0.001232
775.5033	-0.002469
775.7387	-0.000819
775.9741	-0.002469
776.2095	0.000999
776.4450	0.000724
776.6804	0.000851
776.9158	-0.000608
777.1513	0.000090
777.3868	0.000259
777.6222	0.001168
777.8577	0.000661
778.0932	-0.000418
778.3287	0.000217
778.5642	0.001485
778.7997	-0.001094
779.0352	0.000957
779.2707	-0.000439
779.5063	-0.000227
779.7418	0.000132
779.9774	0.001253
780.2130	-0.000777
780.4485	0.001337
780.6841	-0.000248
780.9197	0.000280
781.1553	0.000301
781.3909	0.000259
781.6265	0.000365
781.8622	0.001020
782.0978	0.000153
782.3335	-0.000100
782.5691	-0.000650
782.8048	-0.001221
783.0405	-0.001263
783.2761	0.000682
783.5118	-0.000375
783.7475	0.000153
783.9832	-0.000312
784.2190	0.000767
784.4547	0.000111
784.6904	-0.000333
784.9262	-0.000439
785.1619	0.000048
785.3977	-0.000037
785.6335	-0.001454
785.8692	-0.001390
786.1050	0.001041
786.3408	0.001316
786.5766	0.001824
786.8124	-0.001073
787.0483	0.000893
787.2841	0.000217
787.5199	-0.000143
787.7558	0.001126
787.9917	0.000788
788.2275	-0.001454
788.4634	-0.000354
788.6993	-0.001961
788.9352	0.001020
789.1711	-0.000143
789.4070	0.001929
789.6429	-0.000206
789.8789	0.000365
790.1148	-0.000439
790.3507	0.001697
790.5867	0.000915
790.8227	0.001274
791.0586	-0.001200
791.2946	0.000259
791.5306	0.001718
791.7666	-0.000650
792.0026	0.002374
792.2387	0.000111
792.4747	0.000936
792.7107	0.001253
792.9468	-0.000693
793.1828	0.001105
793.4189	-0.000608
793.6550	-0.000100
793.8910	-0.000185
794.1271	0.000048
794.3632	0.000767
794.5993	0.001189
794.8355	-0.000608
795.0716	-0.000904
795.3077	0.000618
795.5439	0.001359
795.7800	-0.000037
796.0162	-0.001285
796.2523	-0.000037
796.4885	-0.000354
796.7247	-0.000037
796.9609	-0.000460
797.1971	-0.000248
797.4333	0.002479
797.6695	-0.001433
797.9058	-0.000016
798.1420	-0.000037
798.3783	0.000851
798.6145	0.000174
798.8508	-0.002236
799.0871	-0.000587
799.3233	-0.000883
799.5596	0.000872
799.7959	0.000026
800.0322	-0.002067
800.2686	0.000217
800.5049	0.000280
800.7412	0.000915
800.9776	-0.001707
801.2139	0.001612
801.4503	0.001063
801.6867	-0.000629
801.9230	0.000534
802.1594	0.000872
802.3958	-0.001898
802.6322	-0.000016
802.8686	-0.000206
803.1051	-0.000291
803.3415	0.000428
803.5779	-0.000544
803.8144	0.000386
804.0508	0.001316
804.2873	-0.000439
804.5238	0.000005
804.7603	-0.000523
804.9968	0.001718
805.2333	-0.000016
805.4698	0.000026
805.7063	0.000174
805.9428	0.000470
806.1794	-0.000079
806.4159	-0.000523
806.6525	-0.001094
806.8890	0.001380
807.1256	-0.000270
807.3622	0.000026
807.5988	0.000893
807.8354	-0.000079
808.0720	-0.001263
808.3086	0.001485
808.5452	-0.001094
808.7818	0.000682
809.0185	0.001295
809.2551	0.001972
809.4918	0.001295
809.7284	0.000872
809.9651	0.001211
810.2018	0.000640
810.4385	0.000703
810.6752	0.001507
810.9119	-0.001306
811.1486	0.001655
811.3853	0.000555
811.6221	-0.000248
811.8588	-0.000841
812.0956	0.000196
812.3323	-0.000164
812.5691	0.000407
812.8059	-0.000396
813.0427	0.001380
813.2795	0.000090
813.5163	0.000005
813.7531	-0.000016
813.9899	0.000703
814.2267	0.000026
814.4636	0.001824
814.7004	0.000915
814.9373	-0.000883
815.1742	0.001824
815.4110	0.000069
815.6479	0.000830
815.8848	0.000069
816.1217	0.000830
816.3586	0.000407
816.5955	-0.000523
816.8324	-0.001369
817.0694	-0.000333
817.3063	0.000280
817.5433	0.000259
817.7802	0.000999
818.0172	0.000322
818.2542	0.001168
818.4912	-0.000164
818.7282	-0.001073
818.9652	0.001972
819.2022	0.000957
819.4392	0.000513
819.6762	0.000132
819.9133	-0.000037
820.1503	0.000851
820.3874	0.000936
820.6244	-0.000862
820.8615	0.000492
821.0986	-0.001179
821.3357	0.000851
821.5727	-0.000650
821.8099	-0.001010
822.0470	-0.000671
822.2841	-0.000502
822.5212	-0.001390
822.7584	-0.001369
822.9955	0.000344
823.2327	0.000005
823.4698	-0.000502
823.7070	-0.000544
823.9442	-0.001031
824.1814	0.001866
824.4186	0.000344
824.6558	-0.000227
824.8930	0.000872
825.1302	0.000915
825.3675	0.000196
825.6047	0.000153
825.8419	0.000640
826.0792	-0.000502
826.3165	0.000407
826.5537	0.000513
826.7910	0.001211
827.0283	-0.001221
827.2656	0.000322
827.5029	-0.000608
827.7402	0.001359
827.9776	0.000555
828.2149	-0.000333
828.4522	0.001337
828.6896	0.002014
828.9270	0.001655
829.1643	-0.002046
829.4017	-0.000270
829.6391	0.000745
829.8765	0.001126
830.1139	-0.000058
830.3513	-0.000460
830.5887	-0.000248
830.8261	-0.000100
831.0636	-0.000418
831.3010	0.000153
831.5385	0.000174
831.7759	0.001760
832.0134	0.001359
832.2509	-0.000333
832.4884	0.000661
832.7259	-0.000312
832.9634	0.001232
833.2009	-0.000777
833.4384	-0.000418
833.6759	0.002691
833.9135	-0.000481
834.1510	0.000259
834.3886	-0.000481
834.6261	0.000322
834.8637	-0.000587
835.1013	0.000301
835.3389	-0.002067
835.5765	-0.000693
835.8141	0.000301
836.0517	0.001084
836.2893	-0.000798
836.5269	-0.000248
836.7646	0.000196
837.0022	0.001591
837.2399	-0.000862
837.4775	-0.000206
837.7152	0.001612
837.9529	0.001020
838.1906	0.000724
838.4283	0.001063
838.6660	0.000069
838.9037	-0.000629
839.1414	0.000407
839.3791	-0.000079
839.6169	0.000238
839.8546	0.000872
840.0924	-0.000883
840.3302	0.001041
840.5679	-0.000608
840.8057	0.000449
841.0435	0.000597
841.2813	0.000090
841.5191	-0.001877
841.7569	0.000534
841.9947	-0.000481
842.2326	-0.001665
842.4704	-0.000100
842.7082	0.001760
842.9461	-0.000248
843.1840	0.000048
843.4218	0.000069
843.6597	-0.000608
843.8976	0.000238
844.1355	-0.000481
844.3734	0.000428
844.6113	0.000344
844.8492	-0.000418
845.0872	-0.000819
845.3251	0.000576
845.5631	-0.000735
845.8010	0.000344
846.0390	0.000957
846.2770	-0.000439
846.5149	0.000915
846.7529	-0.000523
846.9909	0.001591
847.2289	-0.001242
847.4669	0.000386
847.7050	0.002543
847.9430	0.001507
848.1810	-0.000248
848.4191	-0.000016
848.6571	-0.000058
848.8952	-0.001559
849.1333	-0.000587
849.3713	0.000640
849.6094	0.000322
849.8475	0.001041
850.0856	-0.000375
850.3237	0.001147
850.5619	-0.000714
850.8000	0.000534
851.0381	0.000745
851.2763	0.000005
851.5144	-0.001581
851.7526	-0.000164
851.9908	-0.000016
852.2289	0.000767
852.4671	0.000280
852.7053	0.000174
852.9435	0.000492
853.1817	0.001612
853.4200	-0.001010
853.6582	0.002014
853.8964	0.001020
854.1347	-0.000481
854.3729	-0.000841
854.6112	-0.000248
854.8495	-0.000481
855.0877	0.001528
855.3260	-0.000841
855.5643	-0.000079
855.8026	-0.000714
856.0409	-0.000164
856.2792	-0.001686
856.5176	0.000915
856.7559	0.000745
856.9942	0.002437
857.2326	0.000999
857.4710	0.001147
857.7093	0.001105
857.9477	0.001337
858.1861	0.000788
858.4245	0.001485
858.6629	0.002141
858.9013	0.001126
859.1397	-0.001158
859.3781	-0.000946
859.6166	-0.000312
859.8550	0.001612
860.0935	-0.001602
860.3319	0.001337
860.5704	-0.000862
860.8089	0.000322
861.0473	0.000238
861.2858	-0.000354
861.5243	-0.000143
861.7628	0.001633
862.0013	0.001084
862.2399	0.000428
862.4784	-0.000883
862.7169	-0.000248
862.9555	0.000238
863.1940	-0.000354
863.4326	0.001041
863.6712	0.001316
863.9098	0.000428
864.1483	0.000576
864.3869	0.001866
864.6255	-0.000164
864.8642	0.000322
865.1028	0.000344
865.3414	0.002458
865.5800	0.000301
865.8187	0.000661
866.0573	0.000788
866.2960	0.000809
866.5347	-0.000650
866.7733	0.000174
867.0120	0.000534
867.2507	0.001464
867.4894	0.000640
867.7281	-0.001433
867.9669	0.000999
868.2056	0.000936
868.4443	0.000217
868.6831	-0.001559
868.9218	-0.000058
869.1606	-0.001221
869.3993	-0.000100
869.6381	0.000344
869.8769	0.001887
870.1157	0.000893
870.3545	0.001612
870.5933	0.000153
870.8321	0.001126
871.0709	-0.000354
871.3097	0.001739
871.5486	-0.000841
871.7874	0.000322
872.0263	-0.000418
872.2651	-0.001094
872.5040	0.000322
872.7429	0.000026
872.9818	-0.001031
873.2207	0.001253
873.4596	-0.000079
873.6985	-0.000883
873.9374	-0.000904
874.1763	-0.001031
874.4153	0.000745
874.6542	-0.000608
874.8932	-0.000693
875.1321	-0.000058
875.3711	-0.000122
875.6101	-0.000016
875.8491	-0.000122
876.0880	0.001020
876.3270	-0.001559
876.5661	-0.001073
876.8051	0.000830
877.0441	-0.001242
877.2831	-0.000312
877.5222	0.000301
877.7612	0.002056
878.0003	-0.001306
878.2393	0.000830
878.4784	-0.000756
878.7175	-0.000333
878.9566	-0.000016
879.1957	0.001739
879.4348	-0.000735
879.6739	-0.000418
879.9130	0.000386
880.1521	-0.000058
880.3913	0.000153
880.6304	-0.001602
880.8696	-0.001348
881.1087	0.000048
881.3479	0.001126
881.5871	0.001168
881.8262	-0.001517
882.0654	-0.000375
882.3046	0.000957
882.5438	0.000724
882.7831	-0.001433
883.0223	0.001126
883.2615	-0.000523
883.5007	0.001485
883.7400	0.000449
883.9792	0.000344
884.2185	-0.001158
884.4578	-0.000756
884.6971	0.000428
884.9363	0.001485
885.1756	0.000682
885.4149	0.000090
885.6542	-0.000587
885.8936	-0.000185
886.1329	0.000322
886.3722	0.000111
886.6116	0.000893
886.8509	-0.000058
887.0903	-0.000164
887.3296	0.002268
887.5690	-0.000227
887.8084	-0.000079
888.0478	-0.001454
888.2872	0.000280
888.5266	-0.000566
888.7660	0.000999
889.0054	0.000153
889.2448	-0.000841
889.4843	0.000703
889.7237	0.001507
889.9632	-0.001411
890.2026	-0.000756
890.4421	-0.001348
890.6816	-0.000354
890.9211	0.000513
891.1606	-0.000016
891.4001	0.002395
891.6396	-0.000608
891.8791	0.001612
892.1186	0.000322
892.3581	-0.000312
892.5977	0.000809
892.8372	0.000767
893.0768	0.001274
893.3163	0.000893
893.5559	-0.000735
893.7955	-0.000735
894.0351	0.000534
894.2747	-0.000354
894.5143	0.000196
894.7539	-0.000312
894.9935	0.000809
895.2331	0.000238
895.4727	-0.000714
895.7124	0.001020
895.9520	0.001401
896.1917	-0.000312
896.4314	0.001337
896.6710	0.001020
896.9107	0.000576
897.1504	0.000851
897.3901	-0.000418
897.6298	-0.001094
897.8695	0.001041
898.1092	-0.000925
898.3489	-0.000079
898.5887	0.000048
898.8284	0.000259
899.0682	-0.000883
899.3079	0.000788
899.5477	0.000259
899.7875	0.000153
900.0272	-0.000523
900.2670	0.001063
900.5068	0.000386
900.7466	0.001232
900.9864	0.000513
901.2263	-0.000143
901.4661	0.000111
901.7059	0.000915
901.9458	0.000365
902.1856	0.000386
902.4255	-0.002109
902.6654	0.000872
902.9052	-0.001327
903.1451	-0.002003
903.3850	0.001147
903.6249	-0.000058
903.8648	-0.001137
904.1047	-0.000333
904.3446	0.001020
904.5846	0.001485
904.8245	0.001845
905.0644	0.000280
905.3044	-0.000693
905.5444	-0.001137
905.7843	-0.000777
906.0243	0.000470
906.2643	0.001591
906.5043	-0.000481
906.7443	-0.000841
906.9843	-0.000587
907.2243	-0.000037
907.4643	0.000618
907.7043	-0.000756
907.9444	-0.000946
908.1844	-0.000735
908.4245	-0.000502
908.6645	0.000111
908.9046	-0.000418
909.1447	-0.001179
909.3847	0.002923
909.6248	0.000470
909.8649	0.000534
910.1050	0.000407
910.3452	-0.000883
910.5853	-0.000439
910.8254	0.001401
911.0655	-0.000544
911.3057	-0.000185
911.5458	-0.001094
911.7860	-0.000058
912.0262	0.000407
912.2663	-0.000143
912.5065	-0.001052
912.7467	0.002035
912.9869	-0.000016
913.2271	0.000449
913.4673	0.001105
913.7075	0.000872
913.9478	0.000661
914.1880	0.001020
914.4283	-0.000777
914.6685	-0.000248
914.9088	-0.000777
915.1490	-0.000418
915.3893	0.000344
915.6296	-0.000904
915.8699	-0.000100
916.1102	0.000745
916.3505	0.000661
916.5908	0.002014
916.8311	-0.001137
917.0714	-0.000016
917.3118	-0.001834
917.5521	0.000618
917.7925	-0.000375
918.0328	0.002099
918.2732	0.000809
918.5136	0.000555
918.7539	0.001147
918.9943	0.000153
919.2347	-0.000016
919.4751	0.000576
919.7155	-0.001031
919.9560	0.000217
920.1964	-0.001094
920.4368	0.001718
920.6773	-0.000566
920.9177	-0.000375
921.1582	0.000026
921.3986	0.000428
921.6391	-0.000946
921.8796	0.000005
922.1201	-0.001898
922.3606	0.000238
922.6011	-0.000100
922.8416	-0.001094
923.0821	-0.000777
923.3226	-0.000756
923.5631	-0.000037
923.8037	-0.000312
924.0442	-0.000312
924.2848	0.000005
924.5254	0.000830
924.7659	-0.000375
925.0065	-0.000037
925.2471	0.001316
925.4877	-0.000164
925.7283	0.001274
925.9689	-0.000714
926.2095	-0.000756
926.4501	-0.001707
926.6908	0.000597
926.9314	-0.000714
927.1720	-0.000693
927.4127	-0.000016
927.6533	0.000259
927.8940	-0.000819
928.1347	0.000809
928.3754	-0.001031
928.6161	0.001824
928.8568	0.000872
929.0975	0.001253
929.3382	0.000618
929.5789	-0.001031
929.8196	-0.000058
930.0604	0.000576
930.3011	-0.000185
930.5419	-0.000735
930.7826	0.000069
931.0234	0.000978
931.2642	-0.000608
931.5049	0.001549
931.7457	0.001041
931.9865	-0.001010
932.2273	-0.000735
932.4681	0.001570
932.7089	-0.000904
932.9498	-0.000693
933.1906	0.000259
933.4314	0.000597
933.6723	-0.000798
933.9131	0.000344
934.1540	-0.000227
934.3949	0.000111
934.6358	-0.000164
934.8766	-0.000185
935.1175	0.001337
935.3584	-0.000460
935.5993	-0.001094
935.8403	0.000217
936.0812	-0.000037
936.3221	0.000005
936.5630	0.000767
936.8040	0.001295
937.0449	0.000048
937.2859	0.000788
937.5269	0.000111
937.7678	0.001591
938.0088	0.001612
938.2498	0.001295
938.4908	0.000830
938.7318	-0.001750
938.9728	0.001401
939.2138	0.000196
939.4549	0.000322
939.6959	-0.000735
939.9369	0.001443
940.1780	-0.000354
940.4190	-0.002046
940.6601	-0.000164
940.9012	0.001084
941.1422	0.001316
941.3833	0.000048
941.6244	0.000174
941.8655	0.001676
942.1066	-0.000608
942.3477	0.000407
942.5889	0.000872
942.8300	0.001041
943.0711	0.000534
943.3123	0.001041
943.5534	0.001041
943.7946	-0.000354
944.0357	-0.000544
944.2769	-0.000396
944.5181	-0.001390
944.7593	-0.001707
945.0005	0.000301
945.2417	-0.001073
945.4829	-0.000354
945.7241	0.002310
945.9653	-0.001158
946.2066	0.001211
946.4478	-0.000481
946.6891	0.001063
946.9303	0.000196
947.1716	0.000449
947.4128	-0.000375
947.6541	-0.000270
947.8954	0.000153
948.1367	-0.000333
948.3780	0.001084
948.6193	-0.000418
948.8606	0.001084
949.1019	0.000090
949.3433	-0.000354
949.5846	-0.000693
949.8259	0.000365
950.0673	-0.000206
950.3086	-0.000714
950.5500	0.002648
950.7914	0.000745
951.0327	-0.000798
951.2741	0.000682
951.5155	0.001253
951.7569	-0.001158
951.9983	0.000936
952.2398	0.000153
952.4812	0.001887
952.7226	-0.000735
952.9640	0.000259
953.2055	0.000893
953.4469	0.000196
953.6884	-0.000079
953.9299	0.000386
954.1713	-0.000333
954.4128	-0.000333
954.6543	-0.000333
954.8958	-0.000185
955.1373	-0.000481
955.3788	0.000174
955.6203	-0.000227
955.8618	0.000344
956.1034	-0.000523
956.3449	0.000809
956.5865	0.000259
956.8280	0.002120
957.0696	-0.001750
957.3111	0.000026
957.5527	-0.000904
957.7943	0.001781
958.0359	-0.000248
958.2775	0.000386
958.5191	-0.000016
958.7607	-0.000354
959.0023	0.000111
959.2439	-0.000058
959.4856	-0.000418
959.7272	0.001147
959.9688	-0.000544
960.2105	-0.001369
960.4522	0.000280
960.6938	0.000618
960.9355	0.001528
961.1772	-0.000587
961.4189	-0.000523
961.6606	0.000597
961.9023	0.000217
962.1440	0.001337
962.3857	-0.000291
962.6274	-0.000375
962.8692	-0.000058
963.1109	-0.000270
963.3527	0.000344
963.5944	-0.000714
963.8362	-0.000523
964.0779	0.001126
964.3197	-0.001369
964.5615	0.000597
964.8033	-0.001644
965.0451	0.001612
965.2869	0.000301
965.5287	-0.001031
965.7705	0.001041
966.0123	-0.000460
966.2542	0.000026
966.4960	0.001084
966.7379	0.000048
966.9797	0.002120
967.2216	0.001464
967.4634	-0.000418
967.7053	0.000513
967.9472	0.001739
968.1891	-0.000756
968.4310	0.000576
968.6729	-0.001517
968.9148	0.001105
969.1567	-0.000058
969.3987	0.000936
969.6406	-0.001623
969.8825	-0.000819
970.1245	-0.000566
970.3664	0.001211
970.6084	0.000322
970.8504	0.002247
971.0923	-0.000439
971.3343	0.000703
971.5763	0.000322
971.8183	0.001359
972.0603	-0.000312
972.3023	-0.000777
972.5443	-0.000798
972.7864	0.001951
973.0284	0.000365
973.2704	0.000259
973.5125	0.000090
973.7545	0.000999
973.9966	0.000767
974.2387	0.000915
974.4807	-0.000735
974.7228	-0.000967
974.9649	-0.000777
975.2070	0.001041
975.4491	0.000555
975.6912	-0.000819
975.9333	-0.000333
976.1755	-0.000227
976.4176	0.000259
976.6597	0.000048
976.9019	-0.000248
977.1440	-0.000333
977.3862	-0.000079
977.6283	0.000217
977.8705	-0.001200
978.1127	-0.000523
978.3549	-0.000100
978.5971	0.002352
978.8393	0.001041
979.0815	-0.000312
979.3237	0.000661
979.5659	0.001591
979.8082	0.000407
980.0504	0.000280
980.2926	0.000492
980.5349	-0.001538
980.7771	0.000196
981.0194	0.000090
981.2617	-0.000819
981.5040	-0.000608
981.7462	-0.000248
981.9885	0.000280
982.2308	0.000449
982.4731	0.001422
982.7155	0.001337
982.9578	0.000217
983.2001	-0.000270
983.4424	0.002543
983.6848	0.000978
983.9271	0.000597
984.1695	0.001422
984.4118	0.000259
984.6542	-0.000185
984.8966	0.000724
985.1390	0.000238
985.3814	0.000069
985.6238	0.000809
985.8662	0.000809
986.1086	-0.000904
986.3510	0.001232
986.5934	0.000745
986.8358	0.002141
987.0783	-0.000248
987.3207	-0.000629
987.5632	0.000788
987.8056	0.001147
988.0481	-0.000608
988.2906	0.000449
988.5331	-0.000671
988.7756	-0.000481
989.0180	-0.000185
989.2605	0.001232
989.5031	-0.000523
989.7456	-0.000544
989.9881	-0.000608
990.2306	0.002120
990.4732	0.001168
990.7157	0.000830
990.9582	-0.000756
991.2008	0.001253
991.4434	0.000618
991.6859	0.000492
991.9285	-0.000777
992.1711	-0.000608
992.4137	0.000090
992.6563	-0.000100
992.8989	-0.000819
993.1415	-0.001137
993.3841	-0.000375
993.6267	0.000682
993.8694	-0.000608
994.1120	0.001422
994.3547	0.000407
994.5973	0.000492
994.8400	-0.000270
995.0826	0.001274
995.3253	0.000365
995.5680	0.001507
995.8107	-0.000016
996.0534	0.000703
996.2961	0.000851
996.5388	0.001591
996.7815	-0.000375
997.0242	0.001443
997.2670	0.000767
997.5097	0.000026
997.7524	0.001295
997.9952	0.001295
998.2379	-0.000354
998.4807	0.001316
998.7235	0.000449
998.9662	0.000090
999.2090	0.000957
999.4518	-0.000418
999.6946	-0.000248
999.9374	-0.001348
1000.1802	0.000788
1000.4230	0.001359
1000.6659	0.000492
1000.9087	0.000196
1001.1515	0.000090
1001.3944	-0.000185
1001.6372	0.000830
1001.8801	0.000386
1002.1230	0.001274
1002.3658	-0.000566
1002.6087	0.000217
1002.8516	0.001189
1003.0945	0.001359
1003.3374	-0.000248
1003.5803	-0.000650
1003.8232	-0.001433
1004.0661	0.001485
1004.3091	-0.000523
1004.5520	0.000872
1004.7949	0.002141
1005.0379	-0.000819
1005.2808	0.000767
1005.5238	0.000470
1005.7667	0.000809
1006.0097	0.000915
1006.2527	-0.000841
1006.4957	0.000576
1006.7387	0.000196
1006.9817	0.000259
1007.2247	-0.000608
1007.4677	0.001105
1007.7107	-0.000270
1007.9538	0.001528
1008.1968	-0.002067
1008.4398	0.000153
1008.6829	0.000069
1008.9259	0.000576
1009.1690	0.001211
1009.4121	-0.000016
1009.6551	0.001549
1009.8982	0.001020
1010.1413	-0.000967
1010.3844	0.000999
1010.6275	-0.000418
1010.8706	-0.001200
1011.1137	-0.001919
1011.3568	0.002352
1011.6000	0.000407
1011.8431	-0.000354
1012.0863	0.000238
1012.3294	-0.000735
1012.5726	0.000238
1012.8157	-0.001094
1013.0589	-0.002532
1013.3021	0.000915
1013.5452	0.001887
1013.7884	0.001084
1014.0316	-0.000989
1014.2748	0.000449
1014.5180	0.000407
1014.7613	0.001866
1015.0045	-0.001137
1015.2477	-0.000481
1015.4909	-0.000227
1015.7342	0.000555
1015.9774	-0.001475
1016.2207	0.002585
1016.4640	0.000492
1016.7072	0.000724
1016.9505	-0.000608
1017.1938	0.001337
1017.4371	0.001337
1017.6804	-0.000185
1017.9237	0.000069
1018.1670	0.000449
1018.4103	0.001126
1018.6536	0.000936
1018.8969	0.000682
1019.1403	0.000470
1019.3836	0.000703
1019.6270	0.001274
1019.8703	0.000365
1020.1137	0.001337
1020.3571	0.000322
1020.6004	0.000809
1020.8438	0.001020
1021.0872	0.001063
1021.3306	-0.000248
1021.5740	-0.001834
1021.8174	-0.002046
1022.0608	-0.003230
1022.3042	-0.002532
1022.5477	-0.002342
1022.7911	-0.003780
1023.0345	-0.002130
