# Wavelength (nm)	Intensity (a.u.)
197.7802	0.000549
197.9842	0.001308
198.1882	0.001330
198.3922	0.001330
198.5963	0.001393
198.8003	-0.000739
199.0044	0.001266
199.2085	0.000654
199.4126	0.000823
199.6168	-0.000127
199.8209	0.000654
200.0251	0.000485
200.2292	-0.000485
200.4334	0.001013
200.6376	0.001055
200.8418	0.000232
201.0461	0.002026
201.2503	-0.000591
201.4546	0.001034
201.6589	-0.000211
201.8631	0.003187
202.0674	0.000992
202.2718	0.002110
202.4761	-0.000401
202.6805	0.001899
202.8848	0.000654
203.0892	0.001330
203.2936	0.001076
203.4980	0.001984
203.7024	0.001140
203.9069	-0.000127
204.1113	-0.000274
204.3158	0.001414
204.5203	0.001140
204.7248	0.000317
204.9293	-0.000042
205.1338	-0.000380
205.3384	-0.000612
205.5430	0.001794
205.7475	0.001498
205.9521	0.001372
206.1567	0.000359
206.3614	-0.000317
206.5660	0.001562
206.7706	0.000823
206.9753	0.000718
207.1800	-0.000169
207.3847	0.000718
207.5894	0.001878
207.7941	0.000549
207.9989	0.000675
208.2036	-0.000127
208.4084	0.001541
208.6132	0.001287
208.8180	0.000380
209.0228	0.000106
209.2276	0.000929
209.4325	-0.001224
209.6373	0.001119
209.8422	-0.000907
210.0471	0.000739
210.2520	-0.000464
210.4569	0.001245
210.6618	0.000042
210.8668	0.000401
211.0718	0.000359
211.2767	0.000422
211.4817	0.000464
211.6867	0.002828
211.8918	-0.000464
212.0968	0.000907
212.3018	-0.000253
212.5069	0.000507
212.7120	0.000823
212.9171	-0.000274
213.1222	0.000084
213.3273	0.001203
213.5325	0.001435
213.7376	0.001498
213.9428	0.000929
214.1480	-0.000612
214.3532	-0.000063
214.5584	0.002533
214.7636	0.002153
214.9689	0.001287
215.1741	-0.000401
215.3794	0.000654
215.5847	0.000612
215.7900	0.000549
215.9953	0.001182
216.2007	0.002364
216.4060	0.000211
216.6114	0.001646
216.8168	0.001667
217.0222	0.000570
217.2276	0.000739
217.4330	0.001330
217.6384	-0.000950
217.8439	0.000549
218.0494	0.000021
218.2548	-0.000338
218.4603	0.001794
218.6659	0.002765
218.8714	0.000485
219.0769	0.001055
219.2825	0.001076
219.4881	0.000886
219.6936	0.001625
219.8992	0.000422
220.1049	0.001815
220.3105	0.000274
220.5161	0.001773
220.7218	0.000127
220.9275	0.000485
221.1332	0.001097
221.3389	0.000190
221.5446	0.000823
221.7503	0.001034
221.9561	0.000528
222.1618	0.000865
222.3676	0.001857
222.5734	-0.000464
222.7792	0.000169
222.9850	0.000000
223.1909	-0.000612
223.3967	0.000507
223.6026	0.002659
223.8085	0.000127
224.0144	-0.000485
224.2203	-0.000317
224.4262	0.000612
224.6322	0.001182
224.8381	0.002469
225.0441	0.000992
225.2501	0.000359
225.4561	0.000232
225.6621	0.001836
225.8681	0.000317
226.0742	0.000844
226.2802	0.000000
226.4863	0.001097
226.6924	0.000654
226.8985	0.000464
227.1046	0.000253
227.3107	0.000675
227.5169	0.001667
227.7230	-0.000422
227.9292	0.001140
228.1354	0.001435
228.3416	0.001393
228.5478	0.000823
228.7541	0.001878
228.9603	0.000570
229.1666	0.000823
229.3729	0.002828
229.5791	0.001562
229.7855	0.000528
229.9918	0.001583
230.1981	0.000886
230.4045	0.000317
230.6108	0.002174
230.8172	0.000886
231.0236	0.000907
231.2300	0.000021
231.4364	0.001899
231.6429	0.000971
231.8493	0.000781
232.0558	0.001330
232.2623	0.000190
232.4688	0.000485
232.6753	-0.000063
232.8818	0.000169
233.0884	0.001076
233.2949	0.000760
233.5015	0.001182
233.7081	0.000781
233.9147	0.000929
234.1213	0.000190
234.3279	0.000190
234.5346	0.000633
234.7413	0.000359
234.9479	0.001055
235.1546	0.000929
235.3613	0.001203
235.5680	0.000253
235.7748	0.000485
235.9815	0.001034
236.1883	0.001709
236.3951	0.000295
236.6018	-0.000211
236.8087	0.001140
237.0155	0.001182
237.2223	0.001266
237.4292	-0.000464
237.6360	0.000485
237.8429	-0.000084
238.0498	0.001393
238.2567	0.000042
238.4636	0.000907
238.6706	-0.000127
238.8775	0.001203
239.0845	0.000570
239.2915	0.000950
239.4985	-0.000485
239.7055	0.001119
239.9125	0.001604
240.1195	0.000696
240.3266	0.000633
240.5337	0.001773
240.7407	0.001055
240.9478	0.002174
241.1549	0.000760
241.3621	0.000253
241.5692	0.000317
241.7764	0.001815
241.9835	-0.000190
242.1907	0.001119
242.3979	0.000591
242.6051	0.002279
242.8124	-0.000507
243.0196	-0.000084
243.2269	0.001330
243.4341	0.001773
243.6414	0.001055
243.8487	0.002047
244.0560	0.001773
244.2634	0.001709
244.4707	0.000148
244.6781	0.000929
244.8854	0.000443
245.0928	0.001899
245.3002	-0.001119
245.5076	0.000317
245.7151	-0.000485
245.9225	0.001667
246.1300	0.001140
246.3375	-0.000654
246.5449	0.001182
246.7524	0.001287
246.9600	0.000865
247.1675	0.000359
247.3750	-0.000570
247.5826	0.000485
247.7902	0.000907
247.9978	0.001942
248.2054	0.001625
248.4130	0.000739
248.6206	-0.000549
248.8283	0.001393
249.0359	0.000950
249.2436	-0.000021
249.4513	0.000211
249.6590	0.001034
249.8667	-0.000021
250.0745	0.000106
250.2822	0.000295
250.4900	-0.000359
250.6978	0.001372
250.9056	0.001266
251.1134	-0.000633
251.3212	0.001034
251.5290	0.000823
251.7369	0.001055
251.9447	-0.000612
252.1526	0.001097
252.3605	0.000274
252.5684	0.000633
252.7763	0.000718
252.9843	0.000739
253.1922	0.000528
253.4002	0.000127
253.6082	0.000464
253.8162	0.001224
254.0242	-0.000591
254.2322	0.000696
254.4402	-0.000127
254.6483	0.001942
254.8564	0.002448
255.0644	0.000823
255.2725	-0.001034
255.4806	0.000380
255.6888	-0.000190
255.8969	0.002174
256.1051	0.000907
256.3132	0.001435
256.5214	0.000295
256.7296	0.001203
256.9378	0.001351
257.1460	0.000929
257.3543	0.000401
257.5625	0.000907
257.7708	0.000253
257.9791	-0.000253
258.1874	0.000570
258.3957	0.002068
258.6040	0.000591
258.8124	-0.000359
259.0207	0.000507
259.2291	0.001119
259.4375	-0.000633
259.6459	0.001097
259.8543	-0.000021
260.0627	0.000971
260.2711	0.000169
260.4796	0.002554
260.6881	-0.000380
260.8965	-0.000106
261.1050	0.000507
261.3135	0.002258
261.5221	0.000612
261.7306	-0.000042
261.9392	0.000612
262.1477	0.000127
262.3563	0.000971
262.5649	0.000528
262.7735	0.001625
262.9822	0.001308
263.1908	0.001604
263.3995	0.000000
263.6081	0.000549
263.8168	0.001414
264.0255	0.000063
264.2342	0.001583
264.4429	0.000950
264.6517	0.000295
264.8604	-0.001372
265.0692	0.000823
265.2780	0.000127
265.4868	0.000148
265.6956	-0.000359
265.9044	0.001393
266.1133	0.001034
266.3221	0.001140
266.5310	0.000063
266.7399	0.001372
266.9488	0.001203
267.1577	-0.000992
267.3666	0.000380
267.5755	0.001203
267.7845	0.000718
267.9935	0.002068
268.2024	0.000528
268.4114	0.002153
268.6205	0.002026
268.8295	0.001773
269.0385	-0.000021
269.2476	0.000781
269.4566	0.000084
269.6657	0.000696
269.8748	-0.000317
270.0839	-0.000443
270.2931	-0.000106
270.5022	0.000591
270.7114	0.000127
270.9205	0.001351
271.1297	0.000760
271.3389	0.002322
271.5481	0.000232
271.7573	0.001203
271.9666	0.000929
272.1758	0.000675
272.3851	0.000612
272.5944	-0.000380
272.8037	0.001372
273.0130	0.000886
273.2223	0.000570
273.4316	0.000570
273.6410	0.001414
273.8504	0.001055
274.0597	0.001477
274.2691	0.000528
274.4785	0.002216
274.6880	0.000127
274.8974	0.001372
275.1069	0.000000
275.3163	0.000232
275.5258	-0.000190
275.7353	0.001182
275.9448	0.001520
276.1543	0.000274
276.3639	0.000591
276.5734	0.000907
276.7830	0.001562
276.9926	0.000675
277.2022	0.000359
277.4118	0.001287
277.6214	-0.000380
277.8310	0.000507
278.0407	0.001182
278.2503	0.001351
278.4600	0.001393
278.6697	0.000485
278.8794	0.000464
279.0891	-0.000760
279.2989	0.001815
279.5086	-0.000654
279.7184	-0.001182
279.9281	-0.000359
280.1379	0.001161
280.3477	0.000042
280.5576	-0.000063
280.7674	0.000148
280.9772	0.000232
281.1871	0.001456
281.3970	0.000823
281.6069	0.001203
281.8168	0.000865
282.0267	0.000359
282.2366	0.000359
282.4466	0.000781
282.6565	0.000106
282.8665	0.001013
283.0765	0.001140
283.2865	0.000992
283.4965	0.001097
283.7065	0.000464
283.9166	0.000971
284.1266	0.000190
284.3367	0.001667
284.5468	0.000654
284.7569	0.002174
284.9670	0.000654
285.1771	0.001815
285.3873	0.000422
285.5974	0.001245
285.8076	-0.000528
286.0178	-0.000063
286.2280	0.002132
286.4382	0.001013
286.6484	0.001731
286.8587	0.001330
287.0689	0.000696
287.2792	0.000169
287.4895	0.000781
287.6998	0.000063
287.9101	0.000528
288.1204	0.000443
288.3308	0.000443
288.5411	0.002279
288.7515	-0.000950
288.9619	0.001773
289.1723	-0.000654
289.3827	0.001097
289.5931	-0.000739
289.8035	0.000464
290.0140	0.000549
290.2245	0.000760
290.4349	0.001245
290.6454	0.001161
290.8559	0.000992
291.0665	0.000401
291.2770	0.001076
291.4875	-0.000232
291.6981	0.000148
291.9087	0.000190
292.1193	0.001287
292.3299	0.001161
292.5405	0.000338
292.7511	-0.001140
292.9618	0.000929
293.1724	0.000802
293.3831	0.000591
293.5938	-0.000886
293.8045	-0.000274
294.0152	0.000760
294.2260	-0.000211
294.4367	0.001140
294.6475	0.001034
294.8582	0.001604
295.0690	0.000253
295.2798	0.000359
295.4906	0.000760
295.7015	-0.000253
295.9123	0.001731
296.1232	0.001076
296.3340	0.001773
296.5449	0.001963
296.7558	0.000253
296.9667	0.000211
297.1777	0.001351
297.3886	0.000359
297.5995	0.001097
297.8105	0.001477
298.0215	0.002068
298.2325	0.002153
298.4435	-0.000148
298.6545	0.000591
298.8656	-0.000570
299.0766	0.000992
299.2877	0.000464
299.4988	0.000739
299.7099	0.000464
299.9210	0.000464
300.1321	-0.000106
300.3432	0.001182
300.5544	0.000612
300.7655	0.000507
300.9767	0.000823
301.1879	0.000380
301.3991	0.001055
301.6103	0.000443
301.8215	0.000232
302.0328	0.001963
302.2441	0.000739
302.4553	0.001773
302.6666	0.001583
302.8779	0.000295
303.0892	0.000359
303.3006	0.001435
303.5119	0.001942
303.7233	0.000380
303.9346	0.001984
304.1460	-0.000443
304.3574	0.000718
304.5688	0.001667
304.7803	0.001287
304.9917	0.000612
305.2031	0.001477
305.4146	0.000929
305.6261	-0.001076
305.8376	0.000148
306.0491	0.000823
306.2606	0.002258
306.4722	0.001393
306.6837	0.001034
306.8953	0.000232
307.1069	0.000886
307.3184	0.000148
307.5301	0.001541
307.7417	-0.000274
307.9533	0.001520
308.1650	0.001646
308.3766	0.001055
308.5883	0.000422
308.8000	0.000718
309.0117	0.000654
309.2234	0.000823
309.4351	-0.000127
309.6469	0.001646
309.8586	-0.000422
310.0704	0.001625
310.2822	0.000781
310.4940	0.000570
310.7058	-0.001034
310.9176	0.001013
311.1295	-0.000042
311.3413	0.000612
311.5532	0.001308
311.7651	0.000211
311.9770	0.001351
312.1889	0.001287
312.4008	-0.000169
312.6127	0.000106
312.8247	-0.000190
313.0366	0.000380
313.2486	0.000401
313.4606	0.001034
313.6726	0.000190
313.8846	0.000760
314.0967	0.001182
314.3087	0.001773
314.5208	0.001899
314.7328	0.002153
314.9449	0.000443
315.1570	0.000992
315.3692	-0.000253
315.5813	0.001266
315.7934	0.000633
316.0056	0.000148
316.2177	0.001308
316.4299	0.001667
316.6421	0.000992
316.8543	0.001625
317.0666	0.000000
317.2788	0.001921
317.4911	0.000317
317.7033	0.000295
317.9156	0.001942
318.1279	0.001498
318.3402	0.000802
318.5525	-0.000042
318.7649	-0.000190
318.9772	0.001731
319.1896	-0.001055
319.4019	0.001667
319.6143	0.000570
319.8267	0.001161
320.0392	0.000106
320.2516	-0.000190
320.4640	-0.000127
320.6765	0.000802
320.8890	0.000464
321.1014	0.000485
321.3139	0.000718
321.5265	0.001836
321.7390	0.001477
321.9515	0.000063
322.1641	-0.000338
322.3766	0.001604
322.5892	0.001984
322.8018	0.000760
323.0144	0.001034
323.2270	0.000781
323.4397	0.000084
323.6523	0.000106
323.8650	0.000211
324.0777	0.001119
324.2904	0.001520
324.5031	0.002237
324.7158	-0.000084
324.9285	0.000696
325.1412	0.001034
325.3540	0.001245
325.5668	0.000464
325.7796	0.000507
325.9924	0.000992
326.2052	0.001942
326.4180	0.000929
326.6308	0.000528
326.8437	-0.000380
327.0566	0.001245
327.2694	0.001097
327.4823	0.001140
327.6952	0.001076
327.9082	0.000781
328.1211	0.001308
328.3340	-0.000317
328.5470	0.000338
328.7600	0.000422
328.9730	-0.000295
329.1860	0.000443
329.3990	-0.000232
329.6120	0.000190
329.8251	-0.000950
330.0381	0.000654
330.2512	-0.000549
330.4643	0.000612
330.6774	0.000127
330.8905	0.001646
331.1036	0.000021
331.3167	0.000380
331.5299	0.001857
331.7431	0.000739
331.9562	0.000295
332.1694	0.001857
332.3826	0.001583
332.5959	0.001393
332.8091	-0.000422
333.0223	0.001308
333.2356	0.000084
333.4489	0.000654
333.6622	0.000211
333.8755	0.000401
334.0888	0.000169
334.3021	-0.000739
334.5154	0.001203
334.7288	0.001562
334.9422	0.001731
335.1555	0.000127
335.3689	0.001287
335.5823	0.000190
335.7958	0.000084
336.0092	0.000021
336.2227	-0.001308
336.4361	0.001541
336.6496	0.000127
336.8631	0.000654
337.0766	0.000844
337.2901	0.001625
337.5036	0.001815
337.7172	0.000443
337.9307	0.000549
338.1443	0.002258
338.3579	-0.000274
338.5715	0.002575
338.7851	0.000675
338.9987	0.002068
339.2124	0.000295
339.4260	0.001034
339.6397	-0.000295
339.8533	0.001541
340.0670	0.000549
340.2807	0.002047
340.4945	0.000464
340.7082	0.000338
340.9219	-0.000675
341.1357	0.001562
341.3495	0.000528
341.5633	0.001794
341.7771	0.001372
341.9909	0.001794
342.2047	0.000907
342.4185	0.002047
342.6324	-0.000760
342.8463	0.001541
343.0601	0.001055
343.2740	0.000485
343.4879	0.000971
343.7019	0.000232
343.9158	0.000380
344.1297	0.000549
344.3437	0.001414
344.5577	0.001034
344.7717	0.000865
344.9857	0.001308
345.1997	0.001393
345.4137	0.000443
345.6277	0.000295
345.8418	0.001942
346.0559	0.000274
346.2699	-0.000317
346.4840	0.000443
346.6981	0.002828
346.9123	0.001899
347.1264	0.001667
347.3406	0.000654
347.5547	-0.000232
347.7689	-0.000507
347.9831	0.001097
348.1973	0.001224
348.4115	0.000380
348.6257	0.000718
348.8400	0.001330
349.0542	-0.000359
349.2685	0.000886
349.4828	0.000612
349.6971	0.001456
349.9114	0.000823
350.1257	0.001161
350.3400	0.000232
350.5544	0.001076
350.7687	0.001266
350.9831	-0.001097
351.1975	-0.000802
351.4119	0.000907
351.6263	-0.000380
351.8407	0.001794
352.0552	0.000802
352.2696	0.001266
352.4841	0.001182
352.6986	0.000971
352.9131	0.001097
353.1276	-0.000127
353.3421	0.000422
353.5566	0.001245
353.7712	-0.000401
353.9858	0.000317
354.2003	-0.000633
354.4149	0.001393
354.6295	0.000865
354.8441	0.000865
355.0588	0.001646
355.2734	0.001477
355.4881	0.000886
355.7027	0.001456
355.9174	0.001351
356.1321	0.000295
356.3468	0.001119
356.5615	0.000507
356.7763	0.001731
356.9910	0.000633
357.2058	0.001034
357.4206	0.000021
357.6353	-0.000633
357.8501	0.001203
358.0650	-0.000823
358.2798	0.000042
358.4946	0.001034
358.7095	0.000886
358.9243	-0.000274
359.1392	0.001688
359.3541	0.000084
359.5690	0.000380
359.7839	-0.001203
359.9989	0.001773
360.2138	-0.000443
360.4288	0.000274
360.6438	-0.000253
360.8587	-0.000084
361.0737	0.000865
361.2888	0.000950
361.5038	0.001266
361.7188	0.000317
361.9339	0.001076
362.1489	0.001266
362.3640	-0.000338
362.5791	0.001498
362.7942	0.001034
363.0093	0.000802
363.2245	0.001667
363.4396	0.002132
363.6548	-0.000042
363.8699	0.001857
364.0851	-0.000106
364.3003	-0.000570
364.5155	0.000000
364.7308	0.000718
364.9460	-0.000211
365.1612	0.001245
365.3765	0.000232
365.5918	-0.000084
365.8071	-0.000317
366.0224	0.000549
366.2377	0.000106
366.4530	0.000654
366.6684	0.001034
366.8837	0.001604
367.0991	0.000591
367.3145	0.001562
367.5299	0.000359
367.7453	0.001520
367.9607	-0.000190
368.1761	0.000106
368.3916	0.000211
368.6070	0.000359
368.8225	0.001245
369.0380	0.001161
369.2535	0.001351
369.4690	0.000760
369.6845	0.001182
369.9001	0.000718
370.1156	0.000211
370.3312	0.000295
370.5468	0.000274
370.7624	0.000232
370.9780	-0.000844
371.1936	0.000865
371.4092	0.000232
371.6249	0.000549
371.8405	0.000696
372.0562	0.000084
372.2719	0.000148
372.4876	0.000232
372.7033	0.000169
372.9190	0.001013
373.1348	0.000274
373.3505	0.000886
373.5663	0.000696
373.7820	0.001351
373.9978	0.000718
374.2136	0.001055
374.4294	-0.000549
374.6453	0.000654
374.8611	0.002068
375.0770	0.000654
375.2928	-0.000169
375.5087	0.002912
375.7246	-0.000507
375.9405	0.000485
376.1564	0.000253
376.3724	0.000295
376.5883	-0.000232
376.8043	0.000211
377.0203	0.000317
377.2362	0.001836
377.4522	-0.000464
377.6682	0.000633
377.8843	0.000971
378.1003	0.000633
378.3164	0.000929
378.5324	0.000865
378.7485	-0.000612
378.9646	0.000443
379.1807	0.000422
379.3968	0.000633
379.6129	-0.000084
379.8291	0.001097
380.0452	0.000907
380.2614	0.000042
380.4776	0.001414
380.6938	0.001245
380.9100	0.000718
381.1262	0.001942
381.3424	0.000507
381.5587	0.000844
381.7749	0.000802
381.9912	-0.000106
382.2075	0.000929
382.4238	0.000654
382.6401	0.000464
382.8564	0.000507
383.0728	0.000675
383.2891	0.001034
383.5055	0.000696
383.7219	0.000232
383.9382	0.000127
384.1546	0.001625
384.3711	0.000274
384.5875	-0.001013
384.8039	0.001583
385.0204	0.001140
385.2368	0.001899
385.4533	0.001773
385.6698	0.001224
385.8863	0.000253
386.1028	0.000148
386.3194	0.001667
386.5359	0.001899
386.7525	0.002132
386.9690	0.003102
387.1856	0.000000
387.4022	0.002554
387.6188	0.000169
387.8355	0.000718
388.0521	0.000443
388.2687	0.001055
388.4854	0.002300
388.7021	-0.000696
388.9188	0.001583
389.1355	0.000718
389.3522	0.002427
389.5689	0.001330
389.7856	0.001646
390.0024	0.001351
390.2192	0.000570
390.4359	0.002216
390.6527	0.001140
390.8695	0.000718
391.0863	0.002343
391.3032	0.001076
391.5200	0.001773
391.7369	0.001562
391.9537	0.003271
392.1706	0.000907
392.3875	0.002343
392.6044	0.000823
392.8213	0.003335
393.0383	0.002174
393.2552	0.001963
393.4722	0.002026
393.6891	0.002955
393.9061	0.002322
394.1231	0.002912
394.3401	0.002680
394.5572	0.002828
394.7742	0.002575
394.9912	0.004770
395.2083	0.003039
395.4254	0.003060
395.6425	0.002955
395.8596	0.003693
396.0767	0.002343
396.2938	0.002680
396.5109	0.004073
396.7281	0.003862
396.9453	0.003102
397.1624	0.005297
397.3796	0.003778
397.5968	0.004305
397.8140	0.004685
398.0313	0.005487
398.2485	0.005276
398.4658	0.005867
398.6830	0.004749
398.9003	0.005740
399.1176	0.005234
399.3349	0.005572
399.5522	0.005107
399.7696	0.006395
399.9869	0.006437
400.2043	0.006711
400.4216	0.005656
400.6390	0.005466
400.8564	0.008146
401.0738	0.006796
401.2912	0.006015
401.5087	0.006859
401.7261	0.006732
401.9436	0.006416
402.1610	0.007745
402.3785	0.007766
402.5960	0.007007
402.8135	0.008463
403.0310	0.008357
403.2486	0.006585
403.4661	0.008252
403.6837	0.007745
403.9013	0.007049
404.1189	0.007914
404.3365	0.008864
404.5541	0.007387
404.7717	0.010130
404.9893	0.008653
405.2070	0.009244
405.4246	0.011228
405.6423	0.008020
405.8600	0.010552
406.0777	0.008927
406.2954	0.010362
406.5131	0.011713
406.7309	0.010151
406.9486	0.008125
407.1664	0.009624
407.3842	0.008758
407.6020	0.010489
407.8198	0.010679
408.0376	0.008843
408.2554	0.010700
408.4733	0.010426
408.6911	0.010679
408.9090	0.009497
409.1269	0.010890
409.3448	0.011038
409.5627	0.010552
409.7806	0.010974
409.9985	0.012811
410.2165	0.010763
410.4344	0.011692
410.6524	0.012515
410.8704	0.011143
411.0884	0.010489
411.3064	0.012642
411.5244	0.013401
411.7424	0.012642
411.9605	0.013444
412.1785	0.012895
412.3966	0.012431
412.6147	0.012768
412.8328	0.012220
413.0509	0.014436
413.2690	0.014351
413.4871	0.014858
413.7053	0.013211
413.9234	0.014731
414.1416	0.015026
414.3598	0.010679
414.5780	0.012874
414.7962	0.014689
415.0144	0.014351
415.2326	0.014984
415.4509	0.014815
415.6692	0.015807
415.8874	0.014077
416.1057	0.014625
416.3240	0.014562
416.5423	0.016145
416.7606	0.015343
416.9790	0.015216
417.1973	0.015512
417.4157	0.016040
417.6341	0.016462
417.8524	0.017010
418.0708	0.014668
418.2893	0.015639
418.5077	0.016293
418.7261	0.016377
418.9446	0.015322
419.1630	0.015449
419.3815	0.016609
419.6000	0.016799
419.8185	0.015259
420.0370	0.017306
420.2555	0.016251
420.4741	0.018931
420.6926	0.019205
420.9112	0.017855
421.1298	0.019121
421.3483	0.020471
421.5669	0.021949
421.7856	0.022751
422.0042	0.020999
422.2228	0.021822
422.4415	0.021484
422.6601	0.019965
422.8788	0.020830
423.0975	0.021273
423.3162	0.019691
423.5349	0.020725
423.7536	0.018340
423.9724	0.021928
424.1911	0.019902
424.4099	0.019480
424.6287	0.019100
424.8475	0.021822
425.0663	0.020239
425.2851	0.020619
425.5039	0.021590
425.7228	0.019480
425.9416	0.020134
426.1605	0.020155
426.3793	0.019057
426.5982	0.019733
426.8171	0.017791
427.0361	0.020704
427.2550	0.020661
427.4739	0.023110
427.6929	0.022012
427.9118	0.020788
428.1308	0.020915
428.3498	0.021084
428.5688	0.020936
428.7878	0.021358
429.0068	0.021126
429.2259	0.021696
429.4449	0.021822
429.6640	0.023426
429.8831	0.021611
430.1022	0.025579
430.3213	0.023764
430.5404	0.025748
430.7595	0.026001
430.9787	0.025030
431.1978	0.022920
431.4170	0.023848
431.6362	0.021949
431.8553	0.020239
432.0745	0.019205
432.2938	0.020408
432.5130	0.023173
432.7322	0.021527
432.9515	0.019944
433.1707	0.021696
433.3900	0.022392
433.6093	0.023954
433.8286	0.024439
434.0479	0.027183
434.2673	0.025326
434.4866	0.024249
434.7059	0.020450
434.9253	0.024397
435.1447	0.020429
435.3641	0.024270
435.5835	0.021611
435.8029	0.022666
436.0223	0.022582
436.2418	0.023700
436.4612	0.024080
436.6807	0.023426
436.9001	0.022730
437.1196	0.022286
437.3391	0.023700
437.5586	0.022097
437.7782	0.024038
437.9977	0.023046
438.2173	0.023869
438.4368	0.022645
438.6564	0.024777
438.8760	0.024080
439.0956	0.024355
439.3152	0.023046
439.5348	0.023131
439.7545	0.024608
439.9741	0.024186
440.1938	0.021569
440.4135	0.023616
440.6331	0.022687
440.8528	0.023278
441.0725	0.023827
441.2923	0.026128
441.5120	0.027647
441.7318	0.029483
441.9515	0.026887
442.1713	0.027774
442.3911	0.029103
442.6109	0.027246
442.8307	0.026929
443.0505	0.025368
443.2703	0.027478
443.4902	0.026697
443.7101	0.027204
443.9299	0.025600
444.1498	0.026191
444.3697	0.025326
444.5896	0.028470
444.8095	0.026507
445.0295	0.026972
445.2494	0.026507
445.4694	0.026676
445.6894	0.025705
445.9093	0.025938
446.1293	0.025389
446.3493	0.025790
446.5694	0.024524
446.7894	0.024861
447.0094	0.025558
447.2295	0.026655
447.4496	0.024207
447.6696	0.024714
447.8897	0.023700
448.1098	0.022434
448.3300	0.024714
448.5501	0.022434
448.7702	0.023679
448.9904	0.023785
449.2106	0.023067
449.4307	0.025347
449.6509	0.024460
449.8711	0.023384
450.0914	0.022181
450.3116	0.023257
450.5318	0.023616
450.7521	0.023342
450.9724	0.022286
451.1926	0.023046
451.4129	0.021252
451.6332	0.021653
451.8535	0.023067
452.0739	0.022835
452.2942	0.022666
452.5146	0.021569
452.7349	0.021400
452.9553	0.022899
453.1757	0.020746
453.3961	0.020704
453.6165	0.018614
453.8369	0.021020
454.0574	0.019374
454.2778	0.020640
454.4983	0.019205
454.7188	0.020282
454.9393	0.021295
455.1597	0.018699
455.3803	0.017496
455.6008	0.020176
455.8213	0.018530
456.0419	0.017221
456.2624	0.017179
456.4830	0.018614
456.7036	0.018066
456.9242	0.016630
457.1448	0.017369
457.3654	0.019480
457.5860	0.016947
457.8067	0.018530
458.0274	0.019691
458.2480	0.018656
458.4687	0.018129
458.6894	0.019057
458.9101	0.020134
459.1308	0.019902
459.3516	0.019163
459.5723	0.020767
459.7931	0.017812
460.0138	0.018361
460.2346	0.017791
460.4554	0.017179
460.6762	0.017876
460.8970	0.016082
461.1178	0.017876
461.3387	0.017981
461.5595	0.016040
461.7804	0.016715
462.0013	0.016040
462.2222	0.014056
462.4431	0.015660
462.6640	0.013528
462.8849	0.014879
463.1059	0.015871
463.3268	0.014879
463.5478	0.014161
463.7687	0.014731
463.9897	0.015216
464.2107	0.016356
464.4317	0.015913
464.6528	0.017369
464.8738	0.015385
465.0948	0.016736
465.3159	0.016082
465.5370	0.016398
465.7581	0.016588
465.9792	0.017749
466.2003	0.014879
466.4214	0.015090
466.6425	0.013697
466.8637	0.013064
467.0848	0.011650
467.3060	0.012747
467.5272	0.012642
467.7484	0.013444
467.9696	0.012494
468.1908	0.012198
468.4120	0.012958
468.6333	0.011017
468.8545	0.010763
469.0758	0.010531
469.2970	0.011038
469.5183	0.011565
469.7396	0.009750
469.9610	0.008969
470.1823	0.009476
470.4036	0.009581
470.6250	0.009349
470.8463	0.009898
471.0677	0.008969
471.2891	0.010573
471.5105	0.008969
471.7319	0.009434
471.9533	0.009307
472.1748	0.010637
472.3962	0.008062
472.6177	0.011354
472.8391	0.009181
473.0606	0.010573
473.2821	0.009054
473.5036	0.009940
473.7251	0.009624
473.9467	0.009370
474.1682	0.007766
474.3898	0.009814
474.6113	0.008716
474.8329	0.009370
475.0545	0.008484
475.2761	0.008590
475.4977	0.009856
475.7193	0.008927
475.9410	0.009349
476.1626	0.008653
476.3843	0.009603
476.6060	0.008442
476.8277	0.008400
477.0494	0.008083
477.2711	0.007070
477.4928	0.007914
477.7145	0.007598
477.9363	0.007239
478.1580	0.007133
478.3798	0.007872
478.6016	0.008463
478.8234	0.007640
479.0452	0.006310
479.2670	0.007956
479.4888	0.008231
479.7107	0.006374
479.9325	0.008146
480.1544	0.008125
480.3763	0.008716
480.5982	0.009687
480.8201	0.009117
481.0420	0.007809
481.2639	0.008252
481.4859	0.006521
481.7078	0.006796
481.9298	0.006627
482.1517	0.007598
482.3737	0.006669
482.5957	0.008315
482.8177	0.008294
483.0398	0.006226
483.2618	0.006437
483.4838	0.006711
483.7059	0.006986
483.9280	0.006880
484.1501	0.007766
484.3721	0.006796
484.5943	0.007091
484.8164	0.007914
485.0385	0.006901
485.2606	0.007239
485.4828	0.010784
485.7050	0.016103
485.9271	0.019606
486.1493	0.017876
486.3715	0.017580
486.5937	0.013781
486.8160	0.011523
487.0382	0.010362
487.2605	0.012135
487.4827	0.009202
487.7050	0.010088
487.9273	0.006437
488.1496	0.005635
488.3719	0.004516
488.5942	0.005403
488.8165	0.006458
489.0389	0.006458
489.2612	0.004770
489.4836	0.005403
489.7060	0.005128
489.9284	0.005888
490.1508	0.004390
490.3732	0.005698
490.5956	0.006585
490.8180	0.005023
491.0405	0.005086
491.2630	0.005930
491.4854	0.004875
491.7079	0.005804
491.9304	0.003630
492.1529	0.004094
492.3755	0.005635
492.5980	0.005403
492.8205	0.004453
493.0431	0.004200
493.2657	0.004685
493.4882	0.005487
493.7108	0.004537
493.9334	0.005065
494.1561	0.004432
494.3787	0.005023
494.6013	0.004727
494.8240	0.005361
495.0466	0.004453
495.2693	0.004052
495.4920	0.003081
495.7147	0.004854
495.9374	0.004221
496.1601	0.004348
496.3829	0.004896
496.6056	0.005783
496.8284	0.004474
497.0511	0.004896
497.2739	0.005572
497.4967	0.003736
497.7195	0.003187
497.9423	0.005656
498.1652	0.004137
498.3880	0.003841
498.6109	0.005150
498.8337	0.002617
499.0566	0.003736
499.2795	0.003714
499.5024	0.004158
499.7253	0.004580
499.9482	0.004875
500.1712	0.003947
500.3941	0.003672
500.6171	0.004432
500.8400	0.002490
501.0630	0.003503
501.2860	0.003947
501.5090	0.003250
501.7320	0.002174
501.9551	0.005318
502.1781	0.004031
502.4012	0.004749
502.6242	0.004875
502.8473	0.004770
503.0704	0.003546
503.2935	0.003947
503.5166	0.003356
503.7397	0.002744
503.9628	0.004094
504.1860	0.004411
504.4092	0.002976
504.6323	0.003335
504.8555	0.003989
505.0787	0.004221
505.3019	0.003883
505.5251	0.004854
505.7483	0.002912
505.9716	0.003841
506.1948	0.002744
506.4181	0.004284
506.6414	0.003187
506.8647	0.003039
507.0880	0.003693
507.3113	0.004411
507.5346	0.002701
507.7579	0.003588
507.9813	0.003588
508.2046	0.004685
508.4280	0.003968
508.6514	0.003925
508.8748	0.004137
509.0982	0.003229
509.3216	0.002153
509.5450	0.002891
509.7685	0.003039
509.9919	0.004896
510.2154	0.003208
510.4388	0.003102
510.6623	0.002427
510.8858	0.002870
511.1093	0.002300
511.3329	0.005192
511.5564	0.002870
511.7799	0.003546
512.0035	0.003925
512.2270	0.003925
512.4506	0.003693
512.6742	0.002638
512.8978	0.003229
513.1214	0.003039
513.3451	0.003018
513.5687	0.004073
513.7923	0.003883
514.0160	0.002849
514.2397	0.001921
514.4634	0.004516
514.6871	0.004474
514.9108	0.003630
515.1345	0.003018
515.3582	0.003313
515.5819	0.001266
515.8057	0.003524
516.0295	0.003588
516.2532	0.002469
516.4770	0.002575
516.7008	0.003714
516.9246	0.004115
517.1485	0.004305
517.3723	0.003313
517.5961	0.003714
517.8200	0.003102
518.0439	0.003989
518.2677	0.004917
518.4916	0.003799
518.7155	0.003081
518.9395	0.002849
519.1634	0.002533
519.3873	0.003419
519.6113	0.003820
519.8352	0.003546
520.0592	0.002786
520.2832	0.003292
520.5072	0.004390
520.7312	0.003292
520.9552	0.005339
521.1792	0.004432
521.4033	0.003989
521.6273	0.004326
521.8514	0.003609
522.0755	0.002849
522.2996	0.003904
522.5237	0.001899
522.7478	0.002997
522.9719	0.004052
523.1960	0.004348
523.4202	0.003968
523.6443	0.003461
523.8685	0.004284
524.0927	0.005487
524.3169	0.004137
524.5411	0.004263
524.7653	0.003778
524.9895	0.003693
525.2138	0.003904
525.4380	0.004369
525.6623	0.004137
525.8865	0.003672
526.1108	0.004137
526.3351	0.005002
526.5594	0.005150
526.7837	0.003546
527.0081	0.005529
527.2324	0.004875
527.4568	0.004981
527.6811	0.005318
527.9055	0.003503
528.1299	0.004516
528.3543	0.005002
528.5787	0.004981
528.8031	0.004390
529.0276	0.005930
529.2520	0.005994
529.4765	0.005529
529.7009	0.004390
529.9254	0.005487
530.1499	0.005804
530.3744	0.006901
530.5989	0.007049
530.8234	0.007028
531.0480	0.005551
531.2725	0.005909
531.4971	0.004115
531.7217	0.007049
531.9462	0.005339
532.1708	0.005487
532.3954	0.006458
532.6200	0.006880
532.8447	0.005382
533.0693	0.007344
533.2940	0.007555
533.5186	0.007176
533.7433	0.005656
533.9680	0.008083
534.1927	0.006099
534.4174	0.007471
534.6421	0.008210
534.8668	0.009476
535.0916	0.008210
535.3163	0.008379
535.5411	0.008231
535.7659	0.008780
535.9907	0.008758
536.2155	0.009054
536.4403	0.007176
536.6651	0.009265
536.8899	0.008231
537.1148	0.007724
537.3396	0.007619
537.5645	0.007935
537.7894	0.008737
538.0143	0.008336
538.2392	0.008568
538.4641	0.009075
538.6890	0.009455
538.9139	0.009729
539.1389	0.009877
539.3638	0.012431
539.5888	0.008379
539.8138	0.011776
540.0388	0.009750
540.2638	0.011122
540.4888	0.010362
540.7138	0.010700
540.9389	0.011122
541.1639	0.012093
541.3890	0.011523
541.6140	0.012979
541.8391	0.009666
542.0642	0.012367
542.2893	0.011354
542.5144	0.012410
542.7396	0.012051
542.9647	0.013127
543.1899	0.013634
543.4150	0.013022
543.6402	0.012114
543.8654	0.013971
544.0906	0.014140
544.3158	0.013929
544.5410	0.015997
544.7662	0.015280
544.9915	0.017348
545.2167	0.016968
545.4420	0.015660
545.6673	0.014225
545.8926	0.013380
546.1179	0.014520
546.3432	0.016335
546.5685	0.016272
546.7938	0.014436
547.0192	0.017137
547.2445	0.015069
547.4699	0.016757
547.6953	0.018551
547.9206	0.018234
548.1460	0.020429
548.3715	0.020978
548.5969	0.020408
548.8223	0.019269
549.0478	0.019416
549.2732	0.020239
549.4987	0.018910
549.7242	0.018614
549.9496	0.017918
550.1751	0.018150
550.4007	0.017770
550.6262	0.018382
550.8517	0.019522
551.0773	0.018783
551.3028	0.017179
551.5284	0.018361
551.7540	0.020408
551.9796	0.018656
552.2052	0.020872
552.4308	0.022856
552.6564	0.022033
552.8820	0.022329
553.1077	0.023299
553.3333	0.022160
553.5590	0.024882
553.7847	0.023468
554.0104	0.024397
554.2361	0.023827
554.4618	0.022329
554.6875	0.023025
554.9132	0.022286
555.1390	0.022561
555.3648	0.024291
555.5905	0.025304
555.8163	0.027394
556.0421	0.026149
556.2679	0.026887
556.4937	0.025832
556.7195	0.025684
556.9454	0.025157
557.1712	0.024882
557.3971	0.025727
557.6230	0.025452
557.8488	0.025748
558.0747	0.027204
558.3006	0.027373
558.5266	0.025178
558.7525	0.023574
558.9784	0.023511
559.2044	0.023722
559.4303	0.026339
559.6563	0.027542
559.8823	0.025895
560.1083	0.030011
560.3343	0.030053
560.5603	0.031889
560.7863	0.030665
561.0124	0.035435
561.2384	0.034211
561.4645	0.034802
561.6905	0.033535
561.9166	0.034063
562.1427	0.033746
562.3688	0.033388
562.5949	0.031720
562.8211	0.030623
563.0472	0.031298
563.2733	0.035224
563.4995	0.033134
563.7257	0.034485
563.9519	0.036258
564.1781	0.036004
564.4043	0.037651
564.6305	0.038558
564.8567	0.037123
565.0829	0.037819
565.3092	0.038959
565.5355	0.038220
565.7617	0.039212
565.9880	0.039381
566.2143	0.039128
566.4406	0.041027
566.6669	0.042758
566.8932	0.044214
567.1196	0.045818
567.3459	0.049891
567.5723	0.051854
567.7987	0.055758
568.0250	0.054408
568.2514	0.054534
568.4778	0.057194
568.7043	0.061309
568.9307	0.067999
569.1571	0.070025
569.3836	0.075027
569.6100	0.083068
569.8365	0.092417
570.0630	0.097398
570.2895	0.101049
570.5160	0.102568
570.7425	0.104299
570.9690	0.111221
571.1956	0.117553
571.4221	0.121753
571.6487	0.122998
571.8752	0.127113
572.1018	0.134605
572.3284	0.134436
572.5550	0.123863
572.7816	0.115231
573.0082	0.116054
573.2349	0.123082
573.4615	0.136357
573.6882	0.146867
573.9149	0.149906
574.1415	0.156153
574.3682	0.160437
574.5949	0.169998
574.8216	0.167127
575.0484	0.170947
575.2751	0.172108
575.5018	0.168900
575.7286	0.168858
575.9554	0.157166
576.1821	0.152418
576.4089	0.160184
576.6357	0.168985
576.8626	0.175211
577.0894	0.180888
577.3162	0.179178
577.5431	0.190364
577.7699	0.209822
577.9968	0.243188
578.2237	0.237005
578.4505	0.223076
578.6774	0.205601
578.9044	0.195408
579.1313	0.186544
579.3582	0.191123
579.5851	0.198552
579.8121	0.202815
580.0391	0.204715
580.2660	0.207564
580.4930	0.207226
580.7200	0.198510
580.9470	0.203153
581.1741	0.236498
581.4011	0.282781
581.6281	0.309457
581.8552	0.313425
582.0822	0.303379
582.3093	0.295085
582.5364	0.284110
582.7635	0.253952
582.9906	0.233079
583.2177	0.219003
583.4449	0.205306
583.6720	0.195682
583.8991	0.189140
584.1263	0.192136
584.3535	0.194817
584.5807	0.196758
584.8079	0.207100
585.0351	0.222168
585.2623	0.228521
585.4895	0.228922
585.7167	0.228246
585.9440	0.221620
586.1713	0.210455
586.3985	0.199797
586.6258	0.191039
586.8531	0.199439
587.0804	0.212355
587.3077	0.220881
587.5350	0.226537
587.7624	0.224870
587.9897	0.215584
588.2171	0.207311
588.4445	0.197244
588.6718	0.193487
588.8992	0.182618
589.1266	0.171792
589.3540	0.163033
589.5815	0.160332
589.8089	0.162674
590.0363	0.158221
590.2638	0.151236
590.4913	0.145875
590.7187	0.142224
590.9462	0.135344
591.1737	0.131461
591.4012	0.134246
591.6288	0.130131
591.8563	0.131017
592.0838	0.128021
592.3114	0.133930
592.5389	0.151679
592.7665	0.177152
592.9941	0.192263
593.2217	0.201655
593.4493	0.199966
593.6769	0.195260
593.9046	0.187493
594.1322	0.178376
594.3598	0.169322
594.5875	0.167803
594.8152	0.178925
595.0429	0.191440
595.2705	0.197286
595.4983	0.192411
595.7260	0.181985
595.9537	0.174050
596.1814	0.162442
596.4092	0.151447
596.6369	0.142836
596.8647	0.140198
597.0925	0.146149
597.3203	0.148914
597.5481	0.153051
597.7759	0.150096
598.0037	0.146318
598.2315	0.139839
598.4594	0.138109
598.6872	0.150645
598.9151	0.175485
599.1430	0.184433
599.3709	0.180740
599.5988	0.172171
599.8267	0.176224
600.0546	0.182492
600.2825	0.180845
600.5105	0.180571
600.7384	0.175443
600.9664	0.181626
601.1944	0.184855
601.4223	0.183336
601.6503	0.178102
601.8783	0.168056
602.1064	0.167106
602.3344	0.165418
602.5624	0.162294
602.7905	0.171686
603.0185	0.172298
603.2466	0.176392
603.4747	0.186079
603.7028	0.188633
603.9309	0.175949
604.1590	0.170947
604.3871	0.169554
604.6152	0.157504
604.8434	0.154000
605.0715	0.152734
605.2997	0.156237
605.5279	0.161450
605.7561	0.170019
605.9843	0.177638
606.2125	0.173733
606.4407	0.158327
606.6689	0.156111
606.8972	0.154676
607.1254	0.156069
607.3537	0.158643
607.5819	0.161661
607.8102	0.155710
608.0385	0.155963
608.2668	0.150012
608.4951	0.145854
608.7235	0.143596
608.9518	0.141971
609.1801	0.135703
609.4085	0.132453
609.6369	0.133782
609.8653	0.138615
610.0936	0.150202
610.3220	0.149315
610.5505	0.145748
610.7789	0.140071
611.0073	0.138636
611.2357	0.139755
611.4642	0.135112
611.6927	0.140937
611.9211	0.138362
612.1496	0.134943
612.3781	0.131651
612.6066	0.127788
612.8351	0.131250
613.0637	0.132474
613.2922	0.128633
613.5208	0.127915
613.7493	0.128422
613.9779	0.130595
614.2065	0.129118
614.4351	0.126944
614.6637	0.127725
614.8923	0.122829
615.1209	0.125129
615.3495	0.126628
615.5782	0.132009
615.8068	0.128823
616.0355	0.127387
616.2642	0.120317
616.4929	0.114028
616.7216	0.113416
616.9503	0.109828
617.1790	0.108499
617.4077	0.110187
617.6365	0.111559
617.8652	0.111327
618.0940	0.114134
618.3227	0.110968
618.5515	0.102716
618.7803	0.094844
619.0091	0.092438
619.2379	0.088745
619.4667	0.090370
619.6956	0.090454
619.9244	0.094591
620.1533	0.095224
620.3821	0.099234
620.6110	0.091678
620.8399	0.088787
621.0688	0.081063
621.2977	0.072157
621.5266	0.075491
621.7556	0.076969
621.9845	0.081147
622.2135	0.083068
622.4424	0.083870
622.6714	0.084988
622.9004	0.085854
623.1294	0.088956
623.3584	0.088808
623.5874	0.089019
623.8164	0.090961
624.0454	0.084313
624.2745	0.083469
624.5035	0.090328
624.7326	0.090581
624.9617	0.089061
625.1908	0.086339
625.4199	0.084862
625.6490	0.080113
625.8781	0.079417
626.1072	0.079185
626.3364	0.074689
626.5655	0.073550
626.7947	0.068759
627.0238	0.069540
627.2530	0.070996
627.4822	0.071123
627.7114	0.072558
627.9406	0.068083
628.1698	0.068062
628.3991	0.060444
628.6283	0.061583
628.8576	0.057848
629.0868	0.060401
629.3161	0.062871
629.5454	0.066226
629.7747	0.060570
630.0040	0.062005
630.2333	0.062026
630.4626	0.056624
630.6920	0.057067
630.9213	0.056877
631.1507	0.054344
631.3801	0.053817
631.6094	0.055843
631.8388	0.052825
632.0682	0.052804
632.2976	0.051326
632.5271	0.047823
632.7565	0.046979
632.9859	0.048287
633.2154	0.044531
633.4448	0.043497
633.6743	0.044700
633.9038	0.043813
634.1333	0.042716
634.3628	0.045269
634.5923	0.043180
634.8218	0.041850
635.0514	0.043180
635.2809	0.042188
635.5105	0.040563
635.7400	0.041787
635.9696	0.042526
636.1992	0.044890
636.4288	0.047549
636.6584	0.044383
636.8880	0.045607
637.1177	0.045417
637.3473	0.044066
637.5770	0.041703
637.8066	0.042568
638.0363	0.040711
638.2660	0.041829
638.4957	0.044235
638.7254	0.043750
638.9551	0.042441
639.1848	0.040774
639.4145	0.040289
639.6443	0.040609
639.8740	0.037539
640.1038	0.036151
640.3336	0.037846
640.5633	0.036974
640.7931	0.035018
641.0229	0.034147
641.2528	0.035914
641.4826	0.035011
641.7124	0.035816
641.9423	0.033003
642.1721	0.032300
642.4020	0.031367
642.6319	0.032039
642.8617	0.031180
643.0916	0.027887
643.3216	0.031107
643.5515	0.029395
643.7814	0.028473
644.0113	0.030831
644.2413	0.028917
644.4712	0.027429
644.7012	0.026510
644.9312	0.029830
645.1612	0.027941
645.3912	0.028011
645.6212	0.026582
645.8512	0.029812
646.0812	0.025936
646.3113	0.026186
646.5413	0.027087
646.7714	0.027106
647.0015	0.026521
647.2316	0.023574
647.4616	0.024808
647.6918	0.026345
647.9219	0.028179
648.1520	0.029154
648.3821	0.030372
648.6123	0.030679
648.8424	0.035930
649.0726	0.034911
649.3028	0.032660
649.5329	0.034940
649.7631	0.033046
649.9933	0.034943
650.2236	0.031702
650.4538	0.031528
650.6840	0.029425
650.9143	0.027404
651.1445	0.028768
651.3748	0.027336
651.6051	0.029543
651.8354	0.032273
652.0657	0.030029
652.2960	0.031957
652.5263	0.032719
652.7566	0.031989
652.9870	0.030894
653.2173	0.032615
653.4477	0.033610
653.6780	0.033035
653.9084	0.035359
654.1388	0.034778
654.3692	0.032606
654.5996	0.038215
654.8300	0.043029
655.0605	0.067910
655.2909	0.189754
655.5213	0.530394
655.7518	0.950790
655.9823	1.000000
656.2128	1.000000
656.4433	1.000000
656.6738	1.000000
656.9043	1.000000
657.1348	0.865127
657.3653	0.712861
657.5959	0.609778
657.8264	0.530969
658.0570	0.485743
658.2875	0.448408
658.5181	0.409221
658.7487	0.374489
658.9793	0.367613
659.2099	0.328237
659.4406	0.254555
659.6712	0.171094
659.9018	0.099721
660.1325	0.061133
660.3632	0.041053
660.5938	0.032903
660.8245	0.026692
661.0552	0.026101
661.2859	0.024810
661.5166	0.024741
661.7474	0.022909
661.9781	0.024321
662.2088	0.023570
662.4396	0.022491
662.6704	0.022162
662.9011	0.023625
663.1319	0.022562
663.3627	0.022436
663.5935	0.021559
663.8243	0.022167
664.0552	0.022714
664.2860	0.022083
664.5168	0.024357
664.7477	0.022624
664.9786	0.023149
665.2094	0.025521
665.4403	0.026667
665.6712	0.024839
665.9021	0.024724
666.1330	0.026222
666.3640	0.025484
666.5949	0.022072
666.8259	0.021955
667.0568	0.021245
667.2878	0.020790
667.5188	0.022729
667.7497	0.019312
667.9807	0.020490
668.2117	0.021584
668.4428	0.021632
668.6738	0.021484
668.9048	0.020999
669.1359	0.022286
669.3669	0.022814
669.5980	0.022244
669.8291	0.020936
670.0602	0.020957
670.2913	0.022920
670.5224	0.022392
670.7535	0.022962
670.9846	0.022033
671.2157	0.024756
671.4469	0.027183
671.6781	0.027795
671.9092	0.029926
672.1404	0.032670
672.3716	0.034569
672.6028	0.032965
672.8340	0.036173
673.0652	0.033873
673.2964	0.031678
673.5277	0.031530
673.7589	0.030834
673.9902	0.030285
674.2214	0.028998
674.4527	0.027731
674.6840	0.028660
674.9153	0.026761
675.1466	0.027943
675.3779	0.028660
675.6093	0.027816
675.8406	0.025853
676.0719	0.026529
676.3033	0.026592
676.5347	0.027225
676.7661	0.025157
676.9974	0.025326
677.2288	0.024059
677.4602	0.026381
677.6917	0.028175
677.9231	0.028069
678.1545	0.027542
678.3860	0.028850
678.6174	0.032311
678.8489	0.030475
679.0804	0.031636
679.3119	0.034506
679.5434	0.035561
679.7749	0.035603
680.0064	0.035498
680.2379	0.036427
680.4694	0.035350
680.7010	0.033556
680.9325	0.035118
681.1641	0.033746
681.3957	0.035603
681.6273	0.035435
681.8589	0.034907
682.0905	0.033810
682.3221	0.032438
682.5537	0.030897
682.7854	0.029335
683.0170	0.031467
683.2487	0.031340
683.4803	0.033029
683.7120	0.031784
683.9437	0.032839
684.1754	0.032396
684.4071	0.033704
684.6388	0.036427
684.8705	0.038706
685.1023	0.043159
685.3340	0.043771
685.5658	0.043264
685.7975	0.046071
686.0293	0.044552
686.2611	0.043876
686.4929	0.044721
686.7247	0.046578
686.9565	0.043708
687.1883	0.044172
687.4202	0.044911
687.6520	0.042462
687.8838	0.043454
688.1157	0.041956
688.3476	0.041872
688.5795	0.038959
688.8114	0.039634
689.0433	0.037693
689.2752	0.036004
689.5071	0.036258
689.7390	0.038073
689.9710	0.033134
690.2029	0.036047
690.4349	0.034590
690.6669	0.034211
690.8988	0.035688
691.1308	0.040247
691.3628	0.036638
691.5948	0.038685
691.8269	0.038579
692.0589	0.037376
692.2909	0.037503
692.5230	0.038031
692.7550	0.038389
692.9871	0.036173
693.2192	0.038009
693.4513	0.039360
693.6834	0.037524
693.9155	0.036828
694.1476	0.037207
694.3797	0.033261
694.6119	0.032797
694.8440	0.036237
695.0762	0.035456
695.3083	0.036026
695.5405	0.033261
695.7727	0.031383
696.0049	0.031467
696.2371	0.029420
696.4693	0.031995
696.7016	0.036722
696.9338	0.040690
697.1660	0.038769
697.3983	0.042251
697.6306	0.038495
697.8628	0.037250
698.0951	0.038009
698.3274	0.039212
698.5597	0.039592
698.7920	0.039339
699.0243	0.038326
699.2567	0.035350
699.4890	0.035920
699.7214	0.036891
699.9537	0.031741
700.1861	0.033577
700.4185	0.032754
700.6509	0.031235
700.8833	0.031193
701.1157	0.031973
701.3481	0.028576
701.5806	0.029631
701.8130	0.030623
702.0454	0.030771
702.2779	0.031193
702.5104	0.031425
702.7429	0.031277
702.9753	0.029905
703.2078	0.030496
703.4403	0.028934
703.6729	0.030095
703.9054	0.028977
704.1379	0.029167
704.3705	0.028090
704.6030	0.026824
704.8356	0.026317
705.0682	0.024397
705.3008	0.026001
705.5334	0.026001
705.7660	0.026550
705.9986	0.025030
706.2312	0.028681
706.4638	0.033071
706.6965	0.033493
706.9291	0.036680
707.1618	0.036216
707.3945	0.036912
707.6272	0.038495
707.8599	0.037862
708.0926	0.039445
708.3253	0.038094
708.5580	0.037735
708.7907	0.036405
709.0235	0.038495
709.2562	0.033683
709.4890	0.035709
709.7217	0.035414
709.9545	0.035097
710.1873	0.035751
710.4201	0.035709
710.6529	0.035941
710.8857	0.036258
711.1186	0.035815
711.3514	0.031784
711.5842	0.030559
711.8171	0.030581
712.0500	0.029378
712.2828	0.028871
712.5157	0.027499
712.7486	0.029378
712.9815	0.030939
713.2144	0.031762
713.4474	0.033092
713.6803	0.032923
713.9132	0.034907
714.1462	0.036595
714.3791	0.033788
714.6121	0.034802
714.8451	0.036342
715.0781	0.035603
715.3111	0.036363
715.5441	0.037017
715.7771	0.032902
716.0102	0.034189
716.2432	0.030137
716.4762	0.029631
716.7093	0.029167
716.9424	0.029779
717.1754	0.027689
717.4085	0.027415
717.6416	0.028681
717.8747	0.031150
718.1078	0.030433
718.3410	0.028322
718.5741	0.029040
718.8072	0.029863
719.0404	0.030728
719.2736	0.031868
719.5067	0.030771
719.7399	0.028555
719.9731	0.029061
720.2063	0.029378
720.4395	0.028787
720.6727	0.032016
720.9060	0.028322
721.1392	0.029969
721.3725	0.030960
721.6057	0.028702
721.8390	0.030433
722.0723	0.032818
722.3055	0.032079
722.5388	0.030222
722.7721	0.026803
723.0055	0.027457
723.2388	0.026676
723.4721	0.029589
723.7055	0.027816
723.9388	0.028998
724.1722	0.026887
724.4056	0.025916
724.6389	0.028365
724.8723	0.028217
725.1057	0.029167
725.3391	0.032163
725.5726	0.030728
725.8060	0.033746
726.0394	0.031657
726.2729	0.035055
726.5063	0.034274
726.7398	0.035329
726.9733	0.032586
727.2068	0.032628
727.4403	0.032227
727.6738	0.033261
727.9073	0.035498
728.1408	0.035202
728.3743	0.034042
728.6079	0.033599
728.8414	0.035414
729.0750	0.032691
729.3086	0.035097
729.5421	0.037883
729.7757	0.039022
730.0093	0.037545
730.2429	0.035224
730.4766	0.038073
730.7102	0.038643
730.9438	0.042927
731.1775	0.042167
731.4111	0.043454
731.6448	0.042526
731.8785	0.044784
732.1122	0.041302
732.3458	0.042167
732.5795	0.040584
732.8133	0.044615
733.0470	0.043771
733.2807	0.044045
733.5145	0.045037
733.7482	0.044109
733.9820	0.046810
734.2157	0.049279
734.4495	0.054323
734.6833	0.051938
734.9171	0.050292
735.1509	0.048330
735.3847	0.050778
735.6185	0.045164
735.8524	0.049132
736.0862	0.047464
736.3201	0.048119
736.5539	0.051770
736.7878	0.049216
737.0217	0.049934
737.2556	0.049701
737.4895	0.046852
737.7234	0.044615
737.9573	0.046578
738.1912	0.042230
738.4252	0.040753
738.6591	0.041661
738.8931	0.042441
739.1271	0.045755
739.3610	0.049005
739.5950	0.045565
739.8290	0.045396
740.0630	0.044235
740.2970	0.044362
740.5310	0.039867
740.7651	0.038178
740.9991	0.038368
741.2332	0.037313
741.4672	0.035625
741.7013	0.033324
741.9354	0.033662
742.1695	0.036405
742.4036	0.035034
742.6377	0.036680
742.8718	0.034886
743.1059	0.032691
743.3400	0.031636
743.5742	0.033240
743.8083	0.032290
744.0425	0.028322
744.2767	0.031530
744.5108	0.029884
744.7450	0.031488
744.9792	0.029167
745.2134	0.030918
745.4477	0.029525
745.6819	0.029525
745.9161	0.029061
746.1504	0.031214
746.3846	0.029758
746.6189	0.028048
746.8532	0.028808
747.0874	0.030855
747.3217	0.032163
747.5560	0.032459
747.7903	0.033409
748.0247	0.031826
748.2590	0.029610
748.4933	0.028681
748.7277	0.028871
748.9620	0.029188
749.1964	0.031615
749.4308	0.034168
749.6652	0.034991
749.8995	0.036004
750.1339	0.042019
750.3684	0.041302
750.6028	0.041070
750.8372	0.039761
751.0717	0.037988
751.3061	0.036996
751.5406	0.042083
751.7750	0.040014
752.0095	0.039867
752.2440	0.039423
752.4785	0.039571
752.7130	0.036996
752.9475	0.038094
753.1820	0.037608
753.4166	0.038389
753.6511	0.041323
753.8856	0.043961
754.1202	0.042568
754.3548	0.041027
754.5894	0.039128
754.8239	0.042251
755.0585	0.041175
755.2931	0.043729
755.5278	0.042294
755.7624	0.041872
755.9970	0.046029
756.2317	0.046114
756.4663	0.049089
756.7010	0.048836
756.9356	0.050482
757.1703	0.054513
757.4050	0.055590
757.6397	0.060000
757.8744	0.058734
758.1091	0.060064
758.3438	0.056307
758.5786	0.055379
758.8133	0.053163
759.0481	0.055758
759.2828	0.058650
759.5176	0.060211
759.7524	0.059747
759.9872	0.062512
760.2220	0.061647
760.4568	0.062850
760.6916	0.065656
760.9264	0.064728
761.1613	0.063440
761.3961	0.058819
761.6310	0.056687
761.8658	0.052128
762.1007	0.052234
762.3356	0.049554
762.5705	0.049765
762.8054	0.048456
763.0403	0.051242
763.2752	0.049533
763.5101	0.050039
763.7450	0.049132
763.9800	0.051495
764.2149	0.053775
764.4499	0.054239
764.6849	0.058987
764.9198	0.059557
765.1548	0.062512
765.3898	0.055885
765.6248	0.053331
765.8599	0.053753
766.0949	0.051960
766.3299	0.047718
766.5650	0.045375
766.8000	0.043159
767.0351	0.040521
767.2701	0.040669
767.5052	0.038938
767.7403	0.039993
767.9754	0.040331
768.2105	0.041661
768.4456	0.046852
768.6808	0.048119
768.9159	0.049744
769.1510	0.048878
769.3862	0.047781
769.6214	0.046451
769.8565	0.045755
770.0917	0.046726
770.3269	0.043243
770.5621	0.045839
770.7973	0.048562
771.0325	0.047084
771.2677	0.048119
771.5030	0.048815
771.7382	0.046177
771.9735	0.044636
772.2087	0.040352
772.4440	0.042378
772.6793	0.041238
772.9146	0.041639
773.1499	0.038685
773.3852	0.040669
773.6205	0.037017
773.8558	0.037967
774.0911	0.040162
774.3265	0.036321
774.5618	0.033767
774.7972	0.033894
775.0326	0.032332
775.2679	0.030370
775.5033	0.030180
775.7387	0.029905
775.9741	0.027119
776.2095	0.026550
776.4450	0.027225
776.6804	0.026993
776.9158	0.024038
777.1513	0.026402
777.3868	0.023131
777.6222	0.026381
777.8577	0.024545
778.0932	0.023996
778.3287	0.026803
778.5642	0.028956
778.7997	0.029715
779.0352	0.030897
779.2707	0.031868
779.5063	0.033050
779.7418	0.030517
779.9774	0.032691
780.2130	0.030201
780.4485	0.027563
780.6841	0.029293
780.9197	0.029631
781.1553	0.035603
781.3909	0.034928
781.6265	0.036089
781.8622	0.035772
782.0978	0.034844
782.3335	0.035519
782.5691	0.034063
782.8048	0.034991
783.0405	0.033388
783.2761	0.033831
783.5118	0.035857
783.7475	0.033810
783.9832	0.034358
784.2190	0.033873
784.4547	0.031889
784.6904	0.028829
784.9262	0.028660
785.1619	0.030391
785.3977	0.030074
785.6335	0.029652
785.8692	0.030095
786.1050	0.028808
786.3408	0.029758
786.5766	0.029040
786.8124	0.026128
787.0483	0.028322
787.2841	0.028934
787.5199	0.030053
787.7558	0.030581
787.9917	0.031024
788.2275	0.032522
788.4634	0.031277
788.6993	0.033303
788.9352	0.032480
789.1711	0.031931
789.4070	0.031003
789.6429	0.027035
789.8789	0.029673
790.1148	0.027731
790.3507	0.028006
790.5867	0.026170
790.8227	0.026761
791.0586	0.023785
791.2946	0.025304
791.5306	0.024228
791.7666	0.024925
792.0026	0.025684
792.2387	0.023321
792.4747	0.023257
792.7107	0.024101
792.9468	0.022244
793.1828	0.023996
793.4189	0.024165
793.6550	0.024861
793.8910	0.028090
794.1271	0.030813
794.3632	0.032649
794.5993	0.033599
794.8355	0.032163
795.0716	0.033577
795.3077	0.034401
795.5439	0.031361
795.7800	0.031214
796.0162	0.029272
796.2523	0.026423
796.4885	0.025220
796.7247	0.023637
796.9609	0.021717
797.1971	0.023933
797.4333	0.023299
797.6695	0.023933
797.9058	0.022772
798.1420	0.023700
798.3783	0.024439
798.6145	0.022899
798.8508	0.023933
799.0871	0.023152
799.3233	0.021991
799.5596	0.024249
799.7959	0.023426
800.0322	0.021696
800.2686	0.020092
800.5049	0.020640
800.7412	0.019522
800.9776	0.018614
801.2139	0.021231
801.4503	0.017981
801.6867	0.018889
801.9230	0.018044
802.1594	0.017791
802.3958	0.016757
802.6322	0.017031
802.8686	0.018952
803.1051	0.019522
803.3415	0.016715
803.5779	0.019437
803.8144	0.019712
804.0508	0.017897
804.2873	0.018488
804.5238	0.018825
804.7603	0.018635
804.9968	0.017454
805.2333	0.018804
805.4698	0.017475
805.7063	0.017707
805.9428	0.023257
806.1794	0.022540
806.4159	0.025072
806.6525	0.024334
806.8890	0.025009
807.1256	0.024418
807.3622	0.023342
807.5988	0.023215
807.8354	0.023785
808.0720	0.021020
808.3086	0.024207
808.5452	0.024439
808.7818	0.023785
809.0185	0.024101
809.2551	0.022751
809.4918	0.020092
809.7284	0.020303
809.9651	0.020767
810.2018	0.020429
810.4385	0.020704
810.6752	0.017960
810.9119	0.019712
811.1486	0.019691
811.3853	0.018994
811.6221	0.021463
811.8588	0.019142
812.0956	0.018403
812.3323	0.015913
812.5691	0.017137
812.8059	0.014499
813.0427	0.013760
813.2795	0.015280
813.5163	0.017200
813.7531	0.017643
813.9899	0.019269
814.2267	0.019585
814.4636	0.018994
814.7004	0.018783
814.9373	0.019501
815.1742	0.016293
815.4110	0.016947
815.6479	0.015913
815.8848	0.013233
816.1217	0.015322
816.3586	0.015617
816.5955	0.015174
816.8324	0.014815
817.0694	0.014541
817.3063	0.014478
817.5433	0.016377
817.7802	0.014499
818.0172	0.014984
818.2542	0.013359
818.4912	0.013486
818.7282	0.013992
818.9652	0.012768
819.2022	0.012916
819.4392	0.013824
819.6762	0.011312
819.9133	0.012937
820.1503	0.013528
820.3874	0.013718
820.6244	0.015596
820.8615	0.018213
821.0986	0.015512
821.3357	0.016799
821.5727	0.017010
821.8099	0.013064
822.0470	0.013950
822.2841	0.014267
822.5212	0.013929
822.7584	0.012452
822.9955	0.014499
823.2327	0.013000
823.4698	0.011713
823.7070	0.012958
823.9442	0.011143
824.1814	0.009961
824.4186	0.011797
824.6558	0.011185
824.8930	0.011101
825.1302	0.013845
825.3675	0.013043
825.6047	0.014161
825.8419	0.012304
826.0792	0.012747
826.3165	0.013296
826.5537	0.013486
826.7910	0.012811
827.0283	0.012093
827.2656	0.013401
827.5029	0.014203
827.7402	0.015322
827.9776	0.013528
828.2149	0.012072
828.4522	0.012937
828.6896	0.011734
828.9270	0.013992
829.1643	0.013739
829.4017	0.012895
829.6391	0.012747
829.8765	0.012051
830.1139	0.012367
830.3513	0.012642
830.5887	0.010911
830.8261	0.009666
831.0636	0.009455
831.3010	0.009413
831.5385	0.009413
831.7759	0.008526
832.0134	0.009033
832.2509	0.008632
832.4884	0.009708
832.7259	0.008484
832.9634	0.008758
833.2009	0.009265
833.4384	0.010025
833.6759	0.010911
833.9135	0.011164
834.1510	0.012325
834.3886	0.009560
834.6261	0.011185
834.8637	0.010405
835.1013	0.011734
835.3389	0.010953
835.5765	0.011776
835.8141	0.009793
836.0517	0.010362
836.2893	0.009560
836.5269	0.010426
836.7646	0.008484
837.0022	0.010742
837.2399	0.006817
837.4775	0.006817
837.7152	0.008315
837.9529	0.006057
838.1906	0.007534
838.4283	0.007323
838.6660	0.006775
838.9037	0.007513
839.1414	0.007914
839.3791	0.008463
839.6169	0.008653
839.8546	0.008062
840.0924	0.006838
840.3302	0.007872
840.5679	0.005572
840.8057	0.007070
841.0435	0.007091
841.2813	0.006352
841.5191	0.008083
841.7569	0.007387
841.9947	0.006986
842.2326	0.007028
842.4704	0.006648
842.7082	0.006374
842.9461	0.005973
843.1840	0.006395
843.4218	0.004432
843.6597	0.005508
843.8976	0.005698
844.1355	0.005593
844.3734	0.005150
844.6113	0.005909
844.8492	0.006627
845.0872	0.006374
845.3251	0.006416
845.5631	0.006732
845.8010	0.005930
846.0390	0.007197
846.2770	0.005804
846.5149	0.005551
846.7529	0.004115
846.9909	0.006352
847.2289	0.006542
847.4669	0.005740
847.7050	0.005973
847.9430	0.005783
848.1810	0.004875
848.4191	0.005318
848.6571	0.005783
848.8952	0.006669
849.1333	0.005614
849.3713	0.006163
849.6094	0.003292
849.8475	0.006120
850.0856	0.003503
850.3237	0.005825
850.5619	0.004981
850.8000	0.006732
851.0381	0.003989
851.2763	0.004938
851.5144	0.005234
851.7526	0.007218
851.9908	0.007260
852.2289	0.005783
852.4671	0.007682
852.7053	0.009413
852.9435	0.010468
853.1817	0.014815
853.4200	0.014963
853.6582	0.014414
853.8964	0.012452
854.1347	0.014984
854.3729	0.013908
854.6112	0.014203
854.8495	0.015153
855.0877	0.014689
855.3260	0.013591
855.5643	0.012832
855.8026	0.012494
856.0409	0.014288
856.2792	0.012177
856.5176	0.014689
856.7559	0.012135
856.9942	0.013465
857.2326	0.010848
857.4710	0.013211
857.7093	0.010890
857.9477	0.011671
858.1861	0.010405
858.4245	0.011291
858.6629	0.008780
858.9013	0.009392
859.1397	0.008737
859.3781	0.010932
859.6166	0.010341
859.8550	0.009054
860.0935	0.008991
860.3319	0.008969
860.5704	0.007745
860.8089	0.008463
861.0473	0.008167
861.2858	0.007154
861.5243	0.004791
861.7628	0.006965
862.0013	0.007640
862.2399	0.006163
862.4784	0.005867
862.7169	0.006817
862.9555	0.004875
863.1940	0.006796
863.4326	0.008273
863.6712	0.007154
863.9098	0.007978
864.1483	0.006669
864.3869	0.005551
864.6255	0.006943
864.8642	0.006564
865.1028	0.006141
865.3414	0.006416
865.5800	0.005930
865.8187	0.007239
866.0573	0.005361
866.2960	0.006585
866.5347	0.006648
866.7733	0.005044
867.0120	0.007260
867.2507	0.004010
867.4894	0.006458
867.7281	0.005086
867.9669	0.006606
868.2056	0.005804
868.4443	0.004812
868.6831	0.004812
868.9218	0.006606
869.1606	0.003736
869.3993	0.005466
869.6381	0.005318
869.8769	0.005825
870.1157	0.005593
870.3545	0.004369
870.5933	0.005023
870.8321	0.004622
871.0709	0.005361
871.3097	0.007091
871.5486	0.005719
871.7874	0.005635
872.0263	0.005529
872.2651	0.006669
872.5040	0.006416
872.7429	0.005339
872.9818	0.005150
873.2207	0.005656
873.4596	0.005529
873.6985	0.006057
873.9374	0.005740
874.1763	0.004896
874.4153	0.005952
874.6542	0.005867
874.8932	0.006289
875.1321	0.004727
875.3711	0.005719
875.6101	0.006500
875.8491	0.005783
876.0880	0.005930
876.3270	0.005171
876.5661	0.004685
876.8051	0.006226
877.0441	0.005909
877.2831	0.005297
877.5222	0.003841
877.7612	0.007091
878.0003	0.006606
878.2393	0.007914
878.4784	0.007577
878.7175	0.006838
878.9566	0.006606
879.1957	0.008020
879.4348	0.007302
879.6739	0.006141
879.9130	0.007366
880.1521	0.007830
880.3913	0.009117
880.6304	0.007830
880.8696	0.007999
881.1087	0.008463
881.3479	0.007724
881.5871	0.006817
881.8262	0.006437
882.0654	0.007640
882.3046	0.007049
882.5438	0.007323
882.7831	0.006859
883.0223	0.006606
883.2615	0.007619
883.5007	0.006247
883.7400	0.005909
883.9792	0.006901
884.2185	0.006374
884.4578	0.006669
884.6971	0.005424
884.9363	0.007513
885.1756	0.005952
885.4149	0.006901
885.6542	0.006120
885.8936	0.007028
886.1329	0.007366
886.3722	0.007239
886.6116	0.006289
886.8509	0.005698
887.0903	0.005487
887.3296	0.006606
887.5690	0.005867
887.8084	0.006437
888.0478	0.006205
888.2872	0.006817
888.5266	0.006163
888.7660	0.006880
889.0054	0.004073
889.2448	0.005424
889.4843	0.005107
889.7237	0.004791
889.9632	0.004453
890.2026	0.005614
890.4421	0.004727
890.6816	0.004411
890.9211	0.004601
891.1606	0.005276
891.4001	0.004938
891.6396	0.004917
891.8791	0.004537
892.1186	0.005107
892.3581	0.006289
892.5977	0.004917
892.8372	0.006099
893.0768	0.004664
893.3163	0.005339
893.5559	0.004706
893.7955	0.005339
894.0351	0.005529
894.2747	0.005002
894.5143	0.005593
894.7539	0.004537
894.9935	0.004495
895.2331	0.005551
895.4727	0.005255
895.7124	0.005213
895.9520	0.005572
896.1917	0.005804
896.4314	0.005508
896.6710	0.004833
896.9107	0.004369
897.1504	0.005635
897.3901	0.005276
897.6298	0.004601
897.8695	0.005740
898.1092	0.005909
898.3489	0.005487
898.5887	0.006078
898.8284	0.005529
899.0682	0.005318
899.3079	0.005529
899.5477	0.004981
899.7875	0.005128
900.0272	0.003799
900.2670	0.005529
900.5068	0.005339
900.7466	0.005445
900.9864	0.004537
901.2263	0.006458
901.4661	0.004432
901.7059	0.006247
901.9458	0.006437
902.1856	0.006416
902.4255	0.005614
902.6654	0.005677
902.9052	0.003609
903.1451	0.004052
903.3850	0.004453
903.6249	0.003947
903.8648	0.004516
904.1047	0.004854
904.3446	0.004411
904.5846	0.004770
904.8245	0.004115
905.0644	0.004601
905.3044	0.005339
905.5444	0.006036
905.7843	0.004960
906.0243	0.004791
906.2643	0.004537
906.5043	0.006184
906.7443	0.004474
906.9843	0.006289
907.2243	0.003862
907.4643	0.005213
907.7043	0.005867
907.9444	0.004052
908.1844	0.005023
908.4245	0.005150
908.6645	0.004305
908.9046	0.004495
909.1447	0.004664
909.3847	0.003524
909.6248	0.004390
909.8649	0.003862
910.1050	0.004242
910.3452	0.004263
910.5853	0.003292
910.8254	0.004580
911.0655	0.003208
911.3057	0.003651
911.5458	0.004432
911.7860	0.003799
912.0262	0.004516
912.2663	0.004432
912.5065	0.004896
912.7467	0.004706
912.9869	0.004960
913.2271	0.003145
913.4673	0.004242
913.7075	0.004833
913.9478	0.003524
914.1880	0.004031
914.4283	0.003524
914.6685	0.003651
914.9088	0.004263
915.1490	0.003757
915.3893	0.003841
915.6296	0.003208
915.8699	0.003904
916.1102	0.003292
916.3505	0.003609
916.5908	0.003757
916.8311	0.003968
917.0714	0.005086
917.3118	0.003588
917.5521	0.005719
917.7925	0.004411
918.0328	0.004706
918.2732	0.005065
918.5136	0.005804
918.7539	0.004073
918.9943	0.005677
919.2347	0.004115
919.4751	0.003292
919.7155	0.003419
919.9560	0.003799
920.1964	0.003778
920.4368	0.003672
920.6773	0.004516
920.9177	0.003461
921.1582	0.003229
921.3986	0.002744
921.6391	0.003799
921.8796	0.002934
922.1201	0.003862
922.3606	0.003651
922.6011	0.003546
922.8416	0.003335
923.0821	0.003567
923.3226	0.003651
923.5631	0.003546
923.8037	0.003250
924.0442	0.002153
924.2848	0.003841
924.5254	0.003524
924.7659	0.002406
925.0065	0.002976
925.2471	0.002722
925.4877	0.004073
925.7283	0.003039
925.9689	0.004115
926.2095	0.002596
926.4501	0.001857
926.6908	0.003799
926.9314	0.002258
927.1720	0.003609
927.4127	0.003567
927.6533	0.003524
927.8940	0.001773
928.1347	0.003672
928.3754	0.003503
928.6161	0.003018
928.8568	0.003440
929.0975	0.003503
929.3382	0.001857
929.5789	0.002701
929.8196	0.002596
930.0604	0.003672
930.3011	0.003039
930.5419	0.003841
930.7826	0.002638
931.0234	0.003482
931.2642	0.002385
931.5049	0.002406
931.7457	0.002005
931.9865	0.002912
932.2273	0.001878
932.4681	0.003356
932.7089	0.002089
932.9498	0.002955
933.1906	0.001731
933.4314	0.002406
933.6723	0.002448
933.9131	0.003081
934.1540	0.001878
934.3949	0.001984
934.6358	0.002659
934.8766	0.002533
935.1175	0.002322
935.3584	0.001878
935.5993	0.001731
935.8403	0.003039
936.0812	0.001520
936.3221	0.002047
936.5630	0.001287
936.8040	0.002026
937.0449	0.002701
937.2859	0.002047
937.5269	0.002870
937.7678	0.002153
938.0088	0.002680
938.2498	0.000211
938.4908	0.002258
938.7318	0.001097
938.9728	0.002068
939.2138	0.000865
939.4549	0.001688
939.6959	0.000971
939.9369	0.002427
940.1780	0.002110
940.4190	0.002174
940.6601	0.002005
940.9012	0.002089
941.1422	0.000865
941.3833	0.001709
941.6244	0.002638
941.8655	0.002575
942.1066	0.001372
942.3477	0.002701
942.5889	0.002089
942.8300	0.002617
943.0711	0.003145
943.3123	0.001921
943.5534	0.001393
943.7946	0.002026
944.0357	0.000844
944.2769	0.002849
944.5181	0.001604
944.7593	0.002068
945.0005	0.001836
945.2417	0.002047
945.4829	0.001203
945.7241	0.001899
945.9653	0.001583
946.2066	0.000929
946.4478	0.000971
946.6891	0.001857
946.9303	0.001625
947.1716	0.000570
947.4128	0.001921
947.6541	0.001984
947.8954	0.001393
948.1367	0.002596
948.3780	0.001688
948.6193	0.002005
948.8606	-0.000633
949.1019	0.000886
949.3433	0.002216
949.5846	0.001625
949.8259	0.001667
950.0673	0.000401
950.3086	0.000380
950.5500	0.000359
950.7914	0.001836
951.0327	0.001351
951.2741	0.001414
951.5155	0.002659
951.7569	0.001836
951.9983	0.002089
952.2398	0.002765
952.4812	0.000612
952.7226	0.002448
952.9640	0.002807
953.2055	0.000633
953.4469	0.002089
953.6884	0.001182
953.9299	0.003229
954.1713	0.001667
954.4128	0.000549
954.6543	0.001245
954.8958	0.001625
955.1373	0.000907
955.3788	0.002490
955.6203	0.001308
955.8618	0.001773
956.1034	0.001393
956.3449	0.001942
956.5865	0.001203
956.8280	0.002638
957.0696	0.002596
957.3111	0.002385
957.5527	0.002385
957.7943	0.001583
958.0359	0.001245
958.2775	0.001709
958.5191	0.001055
958.7607	0.001456
959.0023	0.000106
959.2439	0.001055
959.4856	0.000295
959.7272	0.000696
959.9688	0.001055
960.2105	0.003356
960.4522	0.000485
960.6938	0.001667
960.9355	0.003398
961.1772	0.002469
961.4189	0.000253
961.6606	0.001773
961.9023	0.000950
962.1440	0.001097
962.3857	0.000992
962.6274	0.000950
962.8692	-0.000380
963.1109	0.001393
963.3527	0.001731
963.5944	0.000211
963.8362	0.000190
964.0779	0.000443
964.3197	0.000000
964.5615	0.001541
964.8033	0.001456
965.0451	0.001224
965.2869	0.001583
965.5287	0.001773
965.7705	0.001372
966.0123	0.000528
966.2542	0.000338
966.4960	0.002364
966.7379	0.000338
966.9797	0.002511
967.2216	0.000422
967.4634	0.001709
967.7053	-0.001055
967.9472	0.000654
968.1891	0.000844
968.4310	0.001245
968.6729	0.001604
968.9148	0.002068
969.1567	0.000422
969.3987	0.001583
969.6406	0.002385
969.8825	0.000823
970.1245	0.000971
970.3664	0.000148
970.6084	0.001709
970.8504	0.000612
971.0923	0.002300
971.3343	0.000274
971.5763	0.000232
971.8183	0.000464
972.0603	0.001351
972.3023	0.002279
972.5443	0.001182
972.7864	0.000612
973.0284	-0.000021
973.2704	0.001625
973.5125	0.001773
973.7545	0.001709
973.9966	0.001266
974.2387	0.000253
974.4807	0.000190
974.7228	0.000359
974.9649	0.000338
975.2070	0.000760
975.4491	0.001097
975.6912	0.002364
975.9333	0.001097
976.1755	0.002026
976.4176	0.000485
976.6597	-0.000106
976.9019	0.000739
977.1440	0.000971
977.3862	0.000971
977.6283	0.000106
977.8705	0.000169
978.1127	0.001330
978.3549	0.000380
978.5971	0.000253
978.8393	0.000549
979.0815	0.001921
979.3237	0.000675
979.5659	0.000443
979.8082	-0.000781
980.0504	0.001161
980.2926	0.001541
980.5349	0.001119
980.7771	0.000317
981.0194	0.000844
981.2617	0.002132
981.5040	0.000950
981.7462	0.000570
981.9885	0.000464
982.2308	0.000274
982.4731	0.001393
982.7155	0.000907
982.9578	0.001182
983.2001	0.000169
983.4424	0.001287
983.6848	0.000612
983.9271	0.000464
984.1695	-0.000317
984.4118	0.001351
984.6542	0.001266
984.8966	0.001076
985.1390	0.001456
985.3814	0.002934
985.6238	0.000886
985.8662	0.001435
986.1086	0.001921
986.3510	0.001119
986.5934	0.000886
986.8358	0.001583
987.0783	0.000760
987.3207	0.002005
987.5632	0.000654
987.8056	0.002300
988.0481	0.000591
988.2906	0.001520
988.5331	0.000211
988.7756	-0.000084
989.0180	0.001034
989.2605	0.001245
989.5031	0.000485
989.7456	0.000274
989.9881	0.001266
990.2306	0.000760
990.4732	0.001119
990.7157	0.001899
990.9582	-0.000063
991.2008	0.000781
991.4434	0.001477
991.6859	0.000739
991.9285	0.000992
992.1711	0.001836
992.4137	0.000211
992.6563	0.001266
992.8989	0.001963
993.1415	0.001224
993.3841	0.000253
993.6267	0.000612
993.8694	0.000021
994.1120	0.000211
994.3547	0.000422
994.5973	0.000464
994.8400	0.000549
995.0826	0.001477
995.3253	0.000718
995.5680	0.001161
995.8107	0.000485
996.0534	0.001921
996.2961	0.001477
996.5388	0.000929
996.7815	-0.000042
997.0242	-0.000169
997.2670	0.000422
997.5097	0.001140
997.7524	0.000823
997.9952	0.001140
998.2379	-0.000359
998.4807	0.000654
998.7235	0.000021
998.9662	0.000549
999.2090	-0.000148
999.4518	-0.001119
999.6946	0.000929
999.9374	0.000464
1000.1802	0.000401
1000.4230	0.001414
1000.6659	0.000000
1000.9087	0.001498
1001.1515	0.000084
1001.3944	0.000422
1001.6372	0.001161
1001.8801	0.002026
1002.1230	0.001287
1002.3658	0.001667
1002.6087	0.001562
1002.8516	0.000042
1003.0945	0.001604
1003.3374	0.000844
1003.5803	0.001140
1003.8232	0.001224
1004.0661	-0.000380
1004.3091	0.000718
1004.5520	0.000464
1004.7949	0.000422
1005.0379	-0.000211
1005.2808	-0.000232
1005.5238	0.000317
1005.7667	-0.000781
1006.0097	0.001330
1006.2527	0.001456
1006.4957	0.001604
1006.7387	0.000718
1006.9817	0.001435
1007.2247	0.000760
1007.4677	0.001625
1007.7107	0.000253
1007.9538	0.000760
1008.1968	-0.000823
1008.4398	0.002364
1008.6829	0.001266
1008.9259	0.001477
1009.1690	0.001477
1009.4121	0.000760
1009.6551	0.001245
1009.8982	0.001287
1010.1413	0.001203
1010.3844	0.002765
1010.6275	0.000148
1010.8706	0.000718
1011.1137	-0.000464
1011.3568	-0.000549
1011.6000	0.000696
1011.8431	0.000570
1012.0863	0.000042
1012.3294	0.000253
1012.5726	0.001604
1012.8157	0.000253
1013.0589	0.000380
1013.3021	0.001161
1013.5452	0.000021
1013.7884	0.001477
1014.0316	0.000274
1014.2748	0.000844
1014.5180	0.001625
1014.7613	0.000907
1015.0045	0.000528
1015.2477	0.002258
1015.4909	0.001963
1015.7342	0.000211
1015.9774	0.000169
1016.2207	0.001773
1016.4640	0.000042
1016.7072	0.000422
1016.9505	-0.000295
1017.1938	0.001308
1017.4371	0.000021
1017.6804	-0.000507
1017.9237	0.000633
1018.1670	0.001477
1018.4103	0.001287
1018.6536	0.000971
1018.8969	0.000971
1019.1403	0.002026
1019.3836	0.001182
1019.6270	0.000000
1019.8703	0.000211
1020.1137	-0.000127
1020.3571	0.002237
1020.6004	0.001351
1020.8438	-0.000359
1021.0872	0.001414
1021.3306	0.000507
1021.5740	0.001414
1021.8174	-0.000633
1022.0608	0.001119
1022.3042	0.000042
1022.5477	-0.000295
1022.7911	0.001646
1023.0345	-0.000443
