# Wavelength (nm)	Intensity (a.u.)
197.7802	0.000021
197.9842	-0.000422
198.1882	0.002152
198.3922	-0.000084
198.5963	-0.000232
198.8003	0.000612
199.0044	0.002278
199.2085	0.000717
199.4126	0.000865
199.6168	0.000844
199.8209	0.000823
200.0251	0.001688
200.2292	0.000422
200.4334	0.000105
200.6376	0.001730
200.8418	0.000654
201.0461	0.000844
201.2503	0.000485
201.4546	0.000084
201.6589	0.000759
201.8631	-0.000380
202.0674	0.000654
202.2718	0.001645
202.4761	0.000316
202.6805	0.001287
202.8848	0.000295
203.0892	0.000886
203.2936	-0.000759
203.4980	0.001139
203.7024	0.001076
203.9069	0.001856
204.1113	0.000274
204.3158	0.001118
204.5203	0.000591
204.7248	0.001434
204.9293	0.001477
205.1338	0.000738
205.3384	0.000211
205.5430	0.001329
205.7475	0.000316
205.9521	0.002468
206.1567	0.001202
206.3614	0.001245
206.5660	-0.000886
206.7706	0.000970
206.9753	0.000063
207.1800	0.000105
207.3847	0.001202
207.5894	0.001055
207.7941	0.002447
207.9989	0.000274
208.2036	0.001434
208.4084	0.000127
208.6132	0.000401
208.8180	0.001202
209.0228	0.000675
209.2276	-0.000105
209.4325	0.001814
209.6373	0.000802
209.8422	0.000042
210.0471	0.000338
210.2520	0.000274
210.4569	0.000548
210.6618	-0.000780
210.8668	0.001455
211.0718	-0.000443
211.2767	0.000949
211.4817	0.001688
211.6867	0.000738
211.8918	0.001498
212.0968	0.001097
212.3018	0.000338
212.5069	0.000928
212.7120	-0.000063
212.9171	0.002046
213.1222	-0.000570
213.3273	0.001519
213.5325	0.000527
213.7376	0.001287
213.9428	0.001055
214.1480	-0.000274
214.3532	0.000738
214.5584	0.001181
214.7636	0.001160
214.9689	0.001160
215.1741	-0.000063
215.3794	0.001455
215.5847	0.000485
215.7900	0.001624
215.9953	0.001245
216.2007	0.002679
216.4060	0.000485
216.6114	0.001392
216.8168	0.000823
217.0222	0.000148
217.2276	-0.000063
217.4330	0.001751
217.6384	0.002468
217.8439	0.000401
218.0494	0.000865
218.2548	0.001055
218.4603	0.002341
218.6659	0.000738
218.8714	0.001814
219.0769	0.001097
219.2825	0.000654
219.4881	-0.001013
219.6936	0.000021
219.8992	0.000696
220.1049	0.000316
220.3105	0.000928
220.5161	0.001139
220.7218	-0.000970
220.9275	0.000970
221.1332	0.000591
221.3389	0.000401
221.5446	0.000316
221.7503	0.001013
221.9561	0.001498
222.1618	0.000274
222.3676	0.001245
222.5734	-0.000063
222.7792	0.000105
222.9850	0.000105
223.1909	0.000844
223.3967	0.000169
223.6026	0.001055
223.8085	0.000464
224.0144	0.000190
224.2203	-0.000359
224.4262	0.000949
224.6322	-0.000042
224.8381	0.000338
225.0441	0.001392
225.2501	0.000527
225.4561	0.000042
225.6621	0.000844
225.8681	0.000823
226.0742	-0.000042
226.2802	-0.000295
226.4863	0.001941
226.6924	-0.000928
226.8985	0.000570
227.1046	0.000738
227.3107	0.000401
227.5169	0.001751
227.7230	0.000886
227.9292	0.001266
228.1354	0.001983
228.3416	0.000717
228.5478	0.000759
228.7541	-0.000042
228.9603	0.000401
229.1666	0.000802
229.3729	-0.000021
229.5791	0.000570
229.7855	0.000127
229.9918	0.000464
230.1981	0.001392
230.4045	0.001371
230.6108	0.001350
230.8172	0.001730
231.0236	0.001160
231.2300	0.000886
231.4364	0.000105
231.6429	-0.000021
231.8493	0.001350
232.0558	0.001835
232.2623	0.000105
232.4688	-0.000232
232.6753	0.001097
232.8818	0.001835
233.0884	0.000823
233.2949	0.000802
233.5015	0.000970
233.7081	0.000316
233.9147	0.001097
234.1213	0.000148
234.3279	0.001308
234.5346	0.001624
234.7413	0.001540
234.9479	0.000865
235.1546	-0.001076
235.3613	0.002679
235.5680	0.001793
235.7748	-0.000169
235.9815	-0.000232
236.1883	0.001266
236.3951	0.002173
236.6018	-0.000063
236.8087	0.000401
237.0155	-0.000042
237.2223	0.000633
237.4292	0.000127
237.6360	0.003122
237.8429	0.000675
238.0498	0.001223
238.2567	0.000696
238.4636	-0.000295
238.6706	0.001118
238.8775	0.002363
239.0845	0.000780
239.2915	0.000654
239.4985	-0.000274
239.7055	0.001793
239.9125	-0.000928
240.1195	0.000928
240.3266	0.000063
240.5337	0.000717
240.7407	-0.000316
240.9478	0.002004
241.1549	0.000823
241.3621	0.001287
241.5692	0.000464
241.7764	0.000844
241.9835	0.000000
242.1907	0.002236
242.3979	-0.000105
242.6051	0.000886
242.8124	0.001118
243.0196	0.001477
243.2269	-0.000464
243.4341	0.001181
243.6414	0.000717
243.8487	0.000316
244.0560	0.001181
244.2634	0.001603
244.4707	0.000949
244.6781	0.000422
244.8854	0.000886
245.0928	0.002088
245.3002	0.000907
245.5076	0.002215
245.7151	0.002257
245.9225	0.001034
246.1300	-0.001202
246.3375	0.001603
246.5449	0.001709
246.7524	0.000949
246.9600	0.000295
247.1675	0.002468
247.3750	-0.000169
247.5826	0.001835
247.7902	0.000042
247.9978	0.000865
248.2054	0.002299
248.4130	0.002257
248.6206	0.000548
248.8283	0.001920
249.0359	0.001287
249.2436	0.001645
249.4513	-0.000190
249.6590	0.001519
249.8667	0.000633
250.0745	0.001898
250.2822	0.000169
250.4900	0.001603
250.6978	-0.000042
250.9056	0.001097
251.1134	0.000422
251.3212	0.000443
251.5290	-0.000380
251.7369	0.000738
251.9447	-0.000232
252.1526	0.001751
252.3605	0.000042
252.5684	-0.000780
252.7763	-0.000338
252.9843	0.001413
253.1922	0.002320
253.4002	0.001055
253.6082	0.001434
253.8162	0.002405
254.0242	0.001055
254.2322	0.001287
254.4402	0.000253
254.6483	0.000548
254.8564	0.001329
255.0644	0.001856
255.2725	0.000591
255.4806	0.001055
255.6888	0.001308
255.8969	0.001540
256.1051	0.001139
256.3132	0.001392
256.5214	-0.000548
256.7296	0.002152
256.9378	0.000548
257.1460	0.001055
257.3543	0.000991
257.5625	0.000907
257.7708	0.000316
257.9791	0.002025
258.1874	0.001983
258.3957	0.001371
258.6040	-0.000127
258.8124	0.000991
259.0207	0.000359
259.2291	0.001181
259.4375	0.002215
259.6459	0.000844
259.8543	0.001034
260.0627	0.000970
260.2711	0.000654
260.4796	0.001477
260.6881	0.001097
260.8965	0.002236
261.1050	0.002004
261.3135	0.000591
261.5221	0.000485
261.7306	0.001645
261.9392	0.001793
262.1477	0.002194
262.3563	0.000211
262.5649	0.001392
262.7735	0.000591
262.9822	-0.000485
263.1908	-0.000380
263.3995	0.002152
263.6081	0.000148
263.8168	0.000991
264.0255	-0.000443
264.2342	0.000612
264.4429	0.001202
264.6517	0.001223
264.8604	0.000823
265.0692	0.000907
265.2780	-0.000570
265.4868	0.001688
265.6956	0.000338
265.9044	-0.000169
266.1133	0.000274
266.3221	0.001139
266.5310	0.000232
266.7399	0.001287
266.9488	0.001160
267.1577	0.001118
267.3666	0.001097
267.5755	0.001350
267.7845	-0.000211
267.9935	0.001413
268.2024	-0.000759
268.4114	0.002025
268.6205	0.000316
268.8295	0.000970
269.0385	0.001139
269.2476	0.000928
269.4566	0.001160
269.6657	0.001983
269.8748	-0.000359
270.0839	0.001835
270.2931	0.000380
270.5022	0.003059
270.7114	0.000274
270.9205	0.001751
271.1297	0.000401
271.3389	0.002215
271.5481	-0.000654
271.7573	0.000169
271.9666	0.001181
272.1758	0.001076
272.3851	0.001160
272.5944	0.000886
272.8037	0.000886
273.0130	0.001772
273.2223	0.001814
273.4316	0.000148
273.6410	0.001076
273.8504	0.001097
274.0597	0.001645
274.2691	0.002278
274.4785	0.000886
274.6880	0.002130
274.8974	0.000717
275.1069	0.001434
275.3163	-0.000823
275.5258	0.001181
275.7353	0.002025
275.9448	0.000802
276.1543	0.000865
276.3639	0.002194
276.5734	0.001329
276.7830	0.001645
276.9926	-0.000190
277.2022	0.000359
277.4118	-0.000063
277.6214	0.002152
277.8310	0.002447
278.0407	0.001139
278.2503	0.000928
278.4600	0.001561
278.6697	-0.000190
278.8794	0.001898
279.0891	0.000907
279.2989	0.001666
279.5086	0.000570
279.7184	0.000970
279.9281	-0.001076
280.1379	0.001308
280.3477	0.001034
280.5576	0.001856
280.7674	0.000527
280.9772	0.001941
281.1871	0.000063
281.3970	0.000506
281.6069	0.001666
281.8168	0.002278
282.0267	-0.000190
282.2366	0.001076
282.4466	-0.000295
282.6565	0.000612
282.8665	0.002130
283.0765	0.000949
283.2865	0.001519
283.4965	0.002194
283.7065	0.000274
283.9166	0.001266
284.1266	0.001097
284.3367	0.001413
284.5468	0.000422
284.7569	0.000970
284.9670	0.001160
285.1771	0.001814
285.3873	0.001076
285.5974	0.001329
285.8076	-0.000359
286.0178	0.000717
286.2280	-0.000148
286.4382	0.001814
286.6484	0.000928
286.8587	0.000148
287.0689	-0.000232
287.2792	0.000928
287.4895	0.001624
287.6998	0.001624
287.9101	-0.000021
288.1204	0.001118
288.3308	0.000759
288.5411	-0.000148
288.7515	0.000844
288.9619	0.000928
289.1723	0.000021
289.3827	0.000802
289.5931	0.000063
289.8035	0.001561
290.0140	0.000654
290.2245	0.002025
290.4349	-0.000380
290.6454	0.001561
290.8559	0.000591
291.0665	0.000802
291.2770	0.000738
291.4875	0.001245
291.6981	0.000401
291.9087	0.002109
292.1193	0.001034
292.3299	0.000527
292.5405	0.001920
292.7511	0.001266
292.9618	-0.000105
293.1724	0.001709
293.3831	0.002215
293.5938	0.001034
293.8045	0.001160
294.0152	-0.000443
294.2260	-0.001181
294.4367	0.001477
294.6475	-0.000127
294.8582	0.001455
295.0690	0.000823
295.2798	0.000696
295.4906	0.000591
295.7015	0.001245
295.9123	0.000970
296.1232	0.000148
296.3340	0.000253
296.5449	0.000633
296.7558	0.000738
296.9667	0.001835
297.1777	0.000717
297.3886	0.000928
297.5995	0.002405
297.8105	0.000401
298.0215	0.001835
298.2325	0.001730
298.4435	0.001202
298.6545	0.001181
298.8656	0.000211
299.0766	-0.000738
299.2877	0.001835
299.4988	0.002109
299.7099	0.000717
299.9210	0.000991
300.1321	0.000844
300.3432	0.001561
300.5544	0.000654
300.7655	0.001139
300.9767	0.002194
301.1879	0.000886
301.3991	-0.000042
301.6103	0.000949
301.8215	0.002130
302.0328	0.000527
302.2441	0.000928
302.4553	0.002341
302.6666	0.001160
302.8779	0.002363
303.0892	0.001202
303.3006	0.002088
303.5119	0.000127
303.7233	0.002025
303.9346	0.000380
304.1460	0.001139
304.3574	0.000148
304.5688	0.001181
304.7803	0.000570
304.9917	-0.000359
305.2031	0.000907
305.4146	0.000907
305.6261	0.000127
305.8376	0.000759
306.0491	0.000591
306.2606	0.001034
306.4722	0.000380
306.6837	0.001477
306.8953	0.001202
307.1069	0.002109
307.3184	0.002278
307.5301	0.001287
307.7417	-0.000169
307.9533	0.003291
308.1650	0.001202
308.3766	0.001835
308.5883	0.001434
308.8000	0.001793
309.0117	0.000928
309.2234	0.001013
309.4351	0.000232
309.6469	0.001793
309.8586	0.000422
310.0704	0.001772
310.2822	0.002067
310.4940	0.001498
310.7058	0.001308
310.9176	0.001814
311.1295	0.001034
311.3413	0.001730
311.5532	0.001477
311.7651	0.002784
311.9770	0.000570
312.1889	0.002426
312.4008	0.001561
312.6127	0.001034
312.8247	0.001498
313.0366	0.001013
313.2486	0.001920
313.4606	0.001329
313.6726	0.003333
313.8846	0.002278
314.0967	0.001835
314.3087	0.003059
314.5208	0.000949
314.7328	0.001709
314.9449	0.001413
315.1570	0.002489
315.3692	0.001793
315.5813	0.002489
315.7934	0.001877
316.0056	0.000063
316.2177	0.001118
316.4299	0.002236
316.6421	0.001118
316.8543	0.001413
317.0666	0.002869
317.2788	0.002363
317.4911	0.000654
317.7033	0.001688
317.9156	0.002827
318.1279	0.001666
318.3402	0.001709
318.5525	0.001751
318.7649	0.002299
318.9772	0.002679
319.1896	0.001561
319.4019	0.002299
319.6143	0.003080
319.8267	0.003101
320.0392	0.001772
320.2516	0.001941
320.4640	0.002573
320.6765	0.000675
320.8890	0.002067
321.1014	0.002552
321.3139	0.003059
321.5265	0.002341
321.7390	0.001202
321.9515	0.002320
322.1641	0.002088
322.3766	0.002953
322.5892	0.002510
322.8018	0.002363
323.0144	0.002405
323.2270	0.003713
323.4397	0.002510
323.6523	0.003649
323.8650	0.002468
324.0777	0.003059
324.2904	0.000401
324.5031	0.002236
324.7158	0.002784
324.9285	0.003670
325.1412	0.002320
325.3540	0.002953
325.5668	0.002995
325.7796	0.002573
325.9924	0.004430
326.2052	0.003396
326.4180	0.002552
326.6308	0.002025
326.8437	0.001645
327.0566	0.003333
327.2694	0.003143
327.4823	0.002890
327.6952	0.002299
327.9082	0.003354
328.1211	0.003185
328.3340	0.003586
328.5470	0.002911
328.7600	0.004556
328.9730	0.003016
329.1860	0.002721
329.3990	0.003248
329.6120	0.003206
329.8251	0.001877
330.0381	0.003565
330.2512	0.002763
330.4643	0.003502
330.6774	0.003945
330.8905	0.004156
331.1036	0.003818
331.3167	0.004071
331.5299	0.003354
331.7431	0.004493
331.9562	0.004430
332.1694	0.003797
332.3826	0.003902
332.5959	0.003923
332.8091	0.004852
333.0223	0.004852
333.2356	0.004641
333.4489	0.004598
333.6622	0.003059
333.8755	0.004240
334.0888	0.004957
334.3021	0.003438
334.5154	0.004366
334.7288	0.005927
334.9422	0.005463
335.1555	0.005252
335.3689	0.003248
335.5823	0.004472
335.7958	0.005126
336.0092	0.005126
336.2227	0.005316
336.4361	0.004198
336.6496	0.005653
336.8631	0.005632
337.0766	0.004894
337.2901	0.006138
337.5036	0.004957
337.7172	0.005801
337.9307	0.004556
338.1443	0.004831
338.3579	0.005105
338.5715	0.006244
338.7851	0.003375
338.9987	0.005716
339.2124	0.004936
339.4260	0.007088
339.6397	0.005484
339.8533	0.006244
340.0670	0.004809
340.2807	0.006940
340.4945	0.006750
340.7082	0.006581
340.9219	0.005590
341.1357	0.006455
341.3495	0.004957
341.5633	0.006096
341.7771	0.005442
341.9909	0.006202
342.2047	0.005506
342.4185	0.005885
342.6324	0.006159
342.8463	0.007172
343.0601	0.006813
343.2740	0.007066
343.4879	0.006898
343.7019	0.006202
343.9158	0.005569
344.1297	0.006223
344.3437	0.006518
344.5577	0.007720
344.7717	0.006391
344.9857	0.007931
345.1997	0.005759
345.4137	0.007299
345.6277	0.006307
345.8418	0.007678
346.0559	0.006033
346.2699	0.007847
346.4840	0.007066
346.6981	0.007320
346.9123	0.006539
347.1264	0.006877
347.3406	0.008353
347.5547	0.007341
347.7689	0.005548
347.9831	0.008902
348.1973	0.007552
348.4115	0.007594
348.6257	0.006750
348.8400	0.009049
349.0542	0.006898
349.2685	0.007024
349.4828	0.008037
349.6971	0.008522
349.9114	0.007805
350.1257	0.008691
350.3400	0.007699
350.5544	0.009450
350.7687	0.009619
350.9831	0.009345
351.1975	0.008248
351.4119	0.008227
351.6263	0.007826
351.8407	0.007636
352.0552	0.008775
352.2696	0.008121
352.4841	0.006961
352.6986	0.008290
352.9131	0.008649
353.1276	0.010842
353.3421	0.009028
353.5566	0.009556
353.7712	0.009387
353.9858	0.009176
354.2003	0.008733
354.4149	0.010441
354.6295	0.008395
354.8441	0.009682
355.0588	0.009155
355.2734	0.009450
355.4881	0.009471
355.7027	0.010294
355.9174	0.008269
356.1321	0.009598
356.3468	0.009218
356.5615	0.007889
356.7763	0.010927
356.9910	0.010315
357.2058	0.008923
357.4206	0.009239
357.6353	0.010041
357.8501	0.010209
358.0650	0.009682
358.2798	0.010062
358.4946	0.009471
358.7095	0.009766
358.9243	0.009640
359.1392	0.010969
359.3541	0.010568
359.5690	0.010399
359.7839	0.010589
359.9989	0.011264
360.2138	0.009788
360.4288	0.009113
360.6438	0.011201
360.8587	0.010505
361.0737	0.008754
361.2888	0.011201
361.5038	0.008121
361.7188	0.010315
361.9339	0.010209
362.1489	0.009851
362.3640	0.010884
362.5791	0.009999
362.7942	0.010589
363.0093	0.011349
363.2245	0.010652
363.4396	0.009450
363.6548	0.010884
363.8699	0.011074
364.0851	0.009619
364.3003	0.012614
364.5155	0.009577
364.7308	0.010863
364.9460	0.011159
365.1612	0.011770
365.3765	0.011349
365.5918	0.011707
365.8071	0.010610
366.0224	0.010842
366.2377	0.010800
366.4530	0.011792
366.6684	0.011391
366.8837	0.010526
367.0991	0.010695
367.3145	0.012298
367.5299	0.011011
367.7453	0.012319
367.9607	0.012129
368.1761	0.011665
368.3916	0.012614
368.6070	0.013753
368.8225	0.011517
369.0380	0.011897
369.2535	0.012994
369.4690	0.013247
369.6845	0.013057
369.9001	0.014492
370.1156	0.013584
370.3312	0.012340
370.5468	0.012614
370.7624	0.010800
370.9780	0.011876
371.1936	0.014470
371.4092	0.013817
371.6249	0.012066
371.8405	0.014070
372.0562	0.013817
372.2719	0.013437
372.4876	0.011623
372.7033	0.011644
372.9190	0.014492
373.1348	0.013964
373.3505	0.013226
373.5663	0.013922
373.7820	0.015525
373.9978	0.013774
374.2136	0.014956
374.4294	0.014091
374.6453	0.013964
374.8611	0.016580
375.0770	0.016242
375.2928	0.017761
375.5087	0.017086
375.7246	0.016474
375.9405	0.017592
376.1564	0.016200
376.3724	0.016074
376.5883	0.016601
376.8043	0.016601
377.0203	0.015588
377.2362	0.015462
377.4522	0.017592
377.6682	0.016390
377.8843	0.017550
378.1003	0.018120
378.3164	0.017698
378.5324	0.018436
378.7485	0.019238
378.9646	0.018985
379.1807	0.018921
379.3968	0.019491
379.6129	0.018162
379.8291	0.017761
380.0452	0.019660
380.2614	0.019660
380.4776	0.019723
380.6938	0.019385
380.9100	0.020060
381.1262	0.019934
381.3424	0.017761
381.5587	0.020103
381.7749	0.019892
381.9912	0.019660
382.2075	0.020967
382.4238	0.020145
382.6401	0.022613
382.8564	0.021136
383.0728	0.022317
383.2891	0.019913
383.5055	0.020166
383.7219	0.022528
383.9382	0.020651
384.1546	0.022444
384.3711	0.021980
384.5875	0.021959
384.8039	0.021389
385.0204	0.022254
385.2368	0.022170
385.4533	0.022191
385.6698	0.020883
385.8863	0.023119
386.1028	0.019638
386.3194	0.021727
386.5359	0.023562
386.7525	0.022381
386.9690	0.024068
387.1856	0.023330
387.4022	0.025355
387.6188	0.023351
387.8355	0.024110
388.0521	0.025060
388.2687	0.024216
388.4854	0.025102
388.7021	0.026072
388.9188	0.025988
389.1355	0.024300
389.3522	0.024954
389.5689	0.024532
389.7856	0.023456
390.0024	0.023794
390.2192	0.023351
390.4359	0.024828
390.6527	0.025376
390.8695	0.024659
391.0863	0.026515
391.3032	0.026030
391.5200	0.026199
391.7369	0.024701
391.9537	0.026241
392.1706	0.026367
392.3875	0.029574
392.6044	0.028097
392.8213	0.029173
393.0383	0.031493
393.2552	0.029426
393.4722	0.027717
393.6891	0.027148
393.9061	0.027654
394.1231	0.028878
394.3401	0.028814
394.5572	0.029574
394.7742	0.029785
394.9912	0.029637
395.2083	0.030185
395.4254	0.029574
395.6425	0.029110
395.8596	0.029405
396.0767	0.029131
396.2938	0.030544
396.5109	0.030417
396.7281	0.031008
396.9453	0.031324
397.1624	0.031282
397.3796	0.030207
397.5968	0.031999
397.8140	0.031789
398.0313	0.033729
398.2485	0.034615
398.4658	0.031662
398.6830	0.034910
398.9003	0.034235
399.1176	0.033877
399.3349	0.033497
399.5522	0.034235
399.7696	0.034615
399.9869	0.031367
400.2043	0.030776
400.4216	0.031282
400.6390	0.032949
400.8564	0.033033
401.0738	0.033434
401.2912	0.034088
401.5087	0.032696
401.7261	0.030586
401.9436	0.033771
402.1610	0.036282
402.3785	0.031978
402.5960	0.030375
402.8135	0.032189
403.0310	0.031324
403.2486	0.033476
403.4661	0.033371
403.6837	0.032042
403.9013	0.033666
404.1189	0.034341
404.3365	0.033139
404.5541	0.033413
404.7717	0.032801
404.9893	0.034320
405.2070	0.035206
405.4246	0.035944
405.6423	0.034700
405.8600	0.035016
406.0777	0.033708
406.2954	0.033392
406.5131	0.035881
406.7309	0.033328
406.9486	0.035248
407.1664	0.031240
407.3842	0.031409
407.6020	0.030164
407.8198	0.030797
408.0376	0.030185
408.2554	0.036028
408.4733	0.035902
408.6911	0.033877
408.9090	0.032337
409.1269	0.034130
409.3448	0.033539
409.5627	0.034130
409.7806	0.033371
409.9985	0.034025
410.2165	0.035417
410.4344	0.032548
410.6524	0.032590
410.8704	0.033139
411.0884	0.032253
411.3064	0.033856
411.5244	0.031704
411.7424	0.034130
411.9605	0.034657
412.1785	0.034826
412.3966	0.031852
412.6147	0.035164
412.8328	0.035269
413.0509	0.034425
413.2690	0.034130
413.4871	0.036071
413.7053	0.033413
413.9234	0.036471
414.1416	0.034214
414.3598	0.035564
414.5780	0.035881
414.7962	0.036155
415.0144	0.031641
415.2326	0.033940
415.4509	0.033708
415.6692	0.034214
415.8874	0.033265
416.1057	0.034130
416.3240	0.034615
416.5423	0.035459
416.7606	0.035501
416.9790	0.034721
417.1973	0.034278
417.4157	0.033455
417.6341	0.033286
417.8524	0.035501
418.0708	0.035185
418.2893	0.035037
418.5077	0.034510
418.7261	0.037315
418.9446	0.035775
419.1630	0.038075
419.3815	0.036914
419.6000	0.035965
419.8185	0.036788
420.0370	0.037737
420.2555	0.038454
420.4741	0.037041
420.6926	0.038813
420.9112	0.039635
421.1298	0.038750
421.3483	0.041239
421.5669	0.042863
421.7856	0.044297
422.0042	0.043453
422.2228	0.043348
422.4415	0.040458
422.6601	0.040353
422.8788	0.040121
423.0975	0.041218
423.3162	0.041576
423.5349	0.043601
423.7536	0.044804
423.9724	0.038813
424.1911	0.038855
424.4099	0.040627
424.6287	0.037463
424.8475	0.041386
425.0663	0.040732
425.2851	0.039678
425.5039	0.039193
425.7228	0.037062
425.9416	0.037758
426.1605	0.035691
426.3793	0.034889
426.5982	0.037421
426.8171	0.037020
427.0361	0.038939
427.2550	0.038539
427.4739	0.037294
427.6929	0.039889
427.9118	0.041428
428.1308	0.038665
428.3498	0.039699
428.5688	0.038518
428.7878	0.036914
429.0068	0.038496
429.2259	0.040901
429.4449	0.041386
429.6640	0.043221
429.8831	0.046934
430.1022	0.045900
430.3213	0.043833
430.5404	0.045120
430.7595	0.045373
430.9787	0.044129
431.1978	0.044255
431.4170	0.042736
431.6362	0.040142
431.8553	0.038750
432.0745	0.037104
432.2938	0.036598
432.5130	0.037125
432.7322	0.038475
432.9515	0.039045
433.1707	0.038518
433.3900	0.039994
433.6093	0.043264
433.8286	0.044192
434.0479	0.046976
434.2673	0.045162
434.4866	0.042462
434.7059	0.038475
434.9253	0.041196
435.1447	0.038897
435.3641	0.039572
435.5835	0.041724
435.8029	0.040036
436.0223	0.040922
436.2418	0.042188
436.4612	0.041386
436.6807	0.044318
436.9001	0.041344
437.1196	0.041682
437.3391	0.041682
437.5586	0.042947
437.7782	0.041260
437.9977	0.041555
438.2173	0.040268
438.4368	0.043875
438.6564	0.043221
438.8760	0.043770
439.0956	0.046217
439.3152	0.042947
439.5348	0.042800
439.7545	0.044825
439.9741	0.041450
440.1938	0.043791
440.4135	0.042103
440.6331	0.043749
440.8528	0.043496
441.0725	0.046850
441.2923	0.050541
441.5120	0.052102
441.7318	0.052714
441.9515	0.052376
442.1713	0.051132
442.3911	0.050583
442.6109	0.050900
442.8307	0.051680
443.0505	0.049318
443.2703	0.051997
443.4902	0.049845
443.7101	0.050583
443.9299	0.052334
444.1498	0.053157
444.3697	0.052735
444.5896	0.051722
444.8095	0.050752
445.0295	0.051047
445.2494	0.051954
445.4694	0.049697
445.6894	0.048959
445.9093	0.050520
446.1293	0.051701
446.3493	0.048685
446.5694	0.053304
446.7894	0.049782
447.0094	0.049655
447.2295	0.050288
447.4496	0.051933
447.6696	0.048389
447.8897	0.049381
448.1098	0.048959
448.3300	0.048115
448.5501	0.047925
448.7702	0.048917
448.9904	0.050330
449.2106	0.048010
449.4307	0.052144
449.6509	0.048221
449.8711	0.050182
450.0914	0.048811
450.3116	0.049529
450.5318	0.048052
450.7521	0.046470
450.9724	0.047778
451.1926	0.045246
451.4129	0.044698
451.6332	0.047208
451.8535	0.047124
452.0739	0.047482
452.2942	0.046850
452.5146	0.048052
452.7349	0.049529
452.9553	0.045246
453.1757	0.045268
453.3961	0.046723
453.6165	0.043200
453.8369	0.043517
454.0574	0.045500
454.2778	0.044593
454.4983	0.041935
454.7188	0.041513
454.9393	0.045732
455.1597	0.045204
455.3803	0.047377
455.6008	0.047377
455.8213	0.046512
456.0419	0.048031
456.2624	0.044445
456.4830	0.043875
456.7036	0.044382
456.9242	0.044339
457.1448	0.044782
457.3654	0.047757
457.5860	0.046892
457.8067	0.048896
458.0274	0.048305
458.2480	0.052988
458.4687	0.050541
458.6894	0.049233
458.9101	0.051068
459.1308	0.050267
459.3516	0.049950
459.5723	0.050035
459.7931	0.048389
460.0138	0.049761
460.2346	0.049170
460.4554	0.048832
460.6762	0.046364
460.8970	0.047947
461.1178	0.048474
461.3387	0.048980
461.5595	0.049233
461.7804	0.047314
462.0013	0.044192
462.2222	0.045921
462.4431	0.043453
462.6640	0.045584
462.8849	0.042842
463.1059	0.046090
463.3268	0.047482
463.5478	0.049908
463.7687	0.047630
463.9897	0.048495
464.2107	0.049739
464.4317	0.049866
464.6528	0.053304
464.8738	0.052545
465.0948	0.053958
465.3159	0.054886
465.5370	0.055308
465.7581	0.054254
465.9792	0.057903
466.2003	0.053621
466.4214	0.053072
466.6425	0.049972
466.8637	0.047925
467.0848	0.044888
467.3060	0.043538
467.5272	0.047525
467.7484	0.047588
467.9696	0.046997
468.1908	0.047504
468.4120	0.044213
468.6333	0.044993
468.8545	0.042314
469.0758	0.044361
469.2970	0.044867
469.5183	0.042525
469.7396	0.040416
469.9610	0.041175
470.1823	0.042736
470.4036	0.041196
470.6250	0.037547
470.8463	0.040289
471.0677	0.038771
471.2891	0.038539
471.5105	0.039277
471.7319	0.040817
471.9533	0.041323
472.1748	0.041049
472.3962	0.041787
472.6177	0.041386
472.8391	0.042821
473.0606	0.044382
473.2821	0.045183
473.5036	0.043559
473.7251	0.043707
473.9467	0.045647
474.1682	0.042736
474.3898	0.043179
474.6113	0.043411
474.8329	0.044761
475.0545	0.046871
475.2761	0.045753
475.4977	0.050583
475.7193	0.048305
475.9410	0.045921
476.1626	0.044614
476.3843	0.043285
476.6060	0.045078
476.8277	0.043875
477.0494	0.044361
477.2711	0.043749
477.4928	0.044593
477.7145	0.042757
477.9363	0.048832
478.1580	0.046934
478.3798	0.049613
478.6016	0.047968
478.8234	0.046934
479.0452	0.045225
479.2670	0.046238
479.4888	0.046639
479.7107	0.047504
479.9325	0.045753
480.1544	0.051933
480.3763	0.051828
480.5982	0.050942
480.8201	0.052440
481.0420	0.049845
481.2639	0.049043
481.4859	0.050857
481.7078	0.050773
481.9298	0.054401
482.1517	0.051364
482.3737	0.051786
482.5957	0.050963
482.8177	0.047525
483.0398	0.047841
483.2618	0.050035
483.4838	0.050857
483.7059	0.051638
483.9280	0.051617
484.1501	0.052165
484.3721	0.054654
484.5943	0.057207
484.8164	0.057270
485.0385	0.057650
485.2606	0.056637
485.4828	0.078786
485.7050	0.131099
485.9271	0.179847
486.1493	0.187609
486.3715	0.158015
486.5937	0.126753
486.8160	0.106651
487.0382	0.101251
487.2605	0.097116
487.4827	0.080874
487.7050	0.065687
487.9273	0.059253
488.1496	0.054401
488.3719	0.053093
488.5942	0.049128
488.8165	0.051596
489.0389	0.052777
489.2612	0.052271
489.4836	0.050879
489.7060	0.050731
489.9284	0.051954
490.1508	0.054718
490.3732	0.052102
490.5956	0.049592
490.8180	0.047989
491.0405	0.049297
491.2630	0.052482
491.4854	0.051554
491.7079	0.049908
491.9304	0.049149
492.1529	0.048010
492.3755	0.049761
492.5980	0.051870
492.8205	0.049676
493.0431	0.049275
493.2657	0.048432
493.4882	0.050752
493.7108	0.051807
493.9334	0.052186
494.1561	0.050330
494.3787	0.052144
494.6013	0.051068
494.8240	0.052861
495.0466	0.050478
495.2693	0.047588
495.4920	0.047989
495.7147	0.047504
495.9374	0.049571
496.1601	0.052735
496.3829	0.054401
496.6056	0.057502
496.8284	0.055435
497.0511	0.052503
497.2739	0.048411
497.4967	0.050014
497.7195	0.048579
497.9423	0.047229
498.1652	0.047461
498.3880	0.047039
498.6109	0.049571
498.8337	0.050752
499.0566	0.051511
499.2795	0.052397
499.5024	0.052714
499.7253	0.052988
499.9482	0.052461
500.1712	0.053726
500.3941	0.050077
500.6171	0.050182
500.8400	0.049613
501.0630	0.049318
501.2860	0.052629
501.5090	0.054781
501.7320	0.053811
501.9551	0.051765
502.1781	0.052629
502.4012	0.054127
502.6242	0.053726
502.8473	0.053621
503.0704	0.053557
503.2935	0.051870
503.5166	0.054823
503.7397	0.055097
503.9628	0.053747
504.1860	0.051638
504.4092	0.050752
504.6323	0.049571
504.8555	0.047968
505.0787	0.049486
505.3019	0.050035
505.5251	0.048643
505.7483	0.047925
505.9716	0.050541
506.1948	0.046512
506.4181	0.050161
506.6414	0.051343
506.8647	0.050710
507.0880	0.050794
507.3113	0.046913
507.5346	0.044234
507.7579	0.047039
507.9813	0.047419
508.2046	0.048474
508.4280	0.048094
508.6514	0.047799
508.8748	0.047335
509.0982	0.046322
509.3216	0.046069
509.5450	0.045415
509.7685	0.044761
509.9919	0.046491
510.2154	0.045626
510.4388	0.046744
510.6623	0.047061
510.8858	0.046132
511.1093	0.045183
511.3329	0.048664
511.5564	0.045647
511.7799	0.047693
512.0035	0.044171
512.2270	0.043411
512.4506	0.043939
512.6742	0.043664
512.8978	0.043264
513.1214	0.045542
513.3451	0.044614
513.5687	0.042483
513.7923	0.041871
514.0160	0.044107
514.2397	0.042757
514.4634	0.043664
514.6871	0.041218
514.9108	0.041893
515.1345	0.041555
515.3582	0.040374
515.5819	0.040964
515.8057	0.041471
516.0295	0.042968
516.2532	0.042483
516.4770	0.043939
516.7008	0.043116
516.9246	0.041471
517.1485	0.041787
517.3723	0.040311
517.5961	0.040500
517.8200	0.038391
518.0439	0.038159
518.2677	0.037041
518.4916	0.038771
518.7155	0.038201
518.9395	0.038855
519.1634	0.040606
519.3873	0.039235
519.6113	0.040732
519.8352	0.040859
520.0592	0.039509
520.2832	0.036092
520.5072	0.037969
520.7312	0.036493
520.9552	0.035269
521.1792	0.038264
521.4033	0.037231
521.6273	0.037843
521.8514	0.035332
522.0755	0.036830
522.2996	0.035058
522.5237	0.035417
522.7478	0.035944
522.9719	0.035712
523.1960	0.035754
523.4202	0.037442
523.6443	0.037653
523.8685	0.037104
524.0927	0.036408
524.3169	0.037800
524.5411	0.036324
524.7653	0.035269
524.9895	0.037400
525.2138	0.034889
525.4380	0.035396
525.6623	0.034636
525.8865	0.035353
526.1108	0.038560
526.3351	0.036071
526.5594	0.038201
526.7837	0.037800
527.0081	0.038792
527.2324	0.035944
527.4568	0.037189
527.6811	0.036007
527.9055	0.036725
528.1299	0.037083
528.3543	0.036746
528.5787	0.037948
528.8031	0.039952
529.0276	0.041576
529.2520	0.038412
529.4765	0.038897
529.7009	0.038982
529.9254	0.038243
530.1499	0.037210
530.3744	0.036872
530.5989	0.038834
530.8234	0.036809
531.0480	0.036514
531.2725	0.037041
531.4971	0.037273
531.7217	0.034467
531.9462	0.037041
532.1708	0.037779
532.3954	0.036028
532.6200	0.037990
532.8447	0.037610
533.0693	0.041871
533.2940	0.042568
533.5186	0.042125
533.7433	0.041492
533.9680	0.044487
534.1927	0.043517
534.4174	0.041597
534.6421	0.041154
534.8668	0.045795
535.0916	0.045753
535.3163	0.045099
535.5411	0.043179
535.7659	0.044593
535.9907	0.042504
536.2155	0.042652
536.4403	0.041871
536.6651	0.040943
536.8899	0.040078
537.1148	0.037843
537.3396	0.037083
537.5645	0.041070
537.7894	0.039657
538.0143	0.042926
538.2392	0.043116
538.4641	0.043411
538.6890	0.043791
538.9139	0.042399
539.1389	0.046554
539.3638	0.043453
539.5888	0.044782
539.8138	0.044445
540.0388	0.044782
540.2638	0.043622
540.4888	0.043221
540.7138	0.042989
540.9389	0.044930
541.1639	0.045310
541.3890	0.043243
541.6140	0.044023
541.8391	0.041787
542.0642	0.045584
542.2893	0.046596
542.5144	0.049128
542.7396	0.045352
542.9647	0.045795
543.1899	0.047377
543.4150	0.046470
543.6402	0.046934
543.8654	0.048896
544.0906	0.047356
544.3158	0.049381
544.5410	0.049993
544.7662	0.049233
544.9915	0.049761
545.2167	0.049486
545.4420	0.050414
545.6673	0.047082
545.8926	0.045352
546.1179	0.046702
546.3432	0.045774
546.5685	0.045099
546.7938	0.044740
547.0192	0.044086
547.2445	0.045964
547.4699	0.047208
547.6953	0.048854
547.9206	0.052186
548.1460	0.055182
548.3715	0.053515
548.5969	0.052524
548.8223	0.053663
549.0478	0.051258
549.2732	0.048389
549.4987	0.046364
549.7242	0.048179
549.9496	0.047651
550.1751	0.045964
550.4007	0.045268
550.6262	0.045584
550.8517	0.044403
551.0773	0.042694
551.3028	0.044023
551.5284	0.043053
551.7540	0.044487
551.9796	0.048579
552.2052	0.052271
552.4308	0.051132
552.6564	0.054760
552.8820	0.050246
553.1077	0.050773
553.3333	0.052334
553.5590	0.051448
553.7847	0.051680
554.0104	0.050583
554.2361	0.051659
554.4618	0.049149
554.6875	0.047588
554.9132	0.044930
555.1390	0.045900
555.3648	0.051090
555.5905	0.050119
555.8163	0.051807
556.0421	0.053051
556.2679	0.053030
556.4937	0.051427
556.7195	0.050140
556.9454	0.049022
557.1712	0.050225
557.3971	0.051701
557.6230	0.049486
557.8488	0.050119
558.0747	0.050330
558.3006	0.048516
558.5266	0.047377
558.7525	0.043179
558.9784	0.044677
559.2044	0.046280
559.4303	0.045246
559.6563	0.045626
559.8823	0.047440
560.1083	0.050288
560.3343	0.053136
560.5603	0.055097
560.7863	0.055667
561.0124	0.057671
561.2384	0.056722
561.4645	0.057460
561.6905	0.058346
561.9166	0.054675
562.1427	0.055625
562.3688	0.052608
562.5949	0.054275
562.8211	0.052608
563.0472	0.052039
563.2733	0.055983
563.4995	0.052756
563.7257	0.055329
563.9519	0.056785
564.1781	0.058093
564.4043	0.058261
564.6305	0.060118
564.8567	0.060160
565.0829	0.061046
565.3092	0.061932
565.5355	0.061004
565.7617	0.058114
565.9880	0.059801
566.2143	0.062079
566.4406	0.062269
566.6669	0.062607
566.8932	0.060729
567.1196	0.068387
567.3459	0.071403
567.5723	0.075601
567.7987	0.076444
568.0250	0.078132
568.2514	0.079039
568.4778	0.082688
568.7043	0.088721
568.9307	0.094923
569.1571	0.100702
569.3836	0.106799
569.6100	0.117915
569.8365	0.126690
570.0630	0.137005
570.2895	0.139642
570.5160	0.141983
570.7425	0.138524
570.9690	0.145970
571.1956	0.162487
571.4221	0.163689
571.6487	0.168646
571.8752	0.172084
572.1018	0.179003
572.3284	0.177189
572.5550	0.164849
572.7816	0.153501
573.0082	0.148100
573.2349	0.163056
573.4615	0.174447
573.6882	0.186196
573.9149	0.193748
574.1415	0.198367
574.3682	0.205392
574.5949	0.213766
574.8216	0.210918
575.0484	0.211657
575.2751	0.215939
575.5018	0.216846
575.7286	0.202987
575.9554	0.195477
576.1821	0.192250
576.4089	0.196005
576.6357	0.209104
576.8626	0.213513
577.0894	0.224988
577.3162	0.221085
577.5431	0.230219
577.7699	0.253844
577.9968	0.292889
578.2237	0.284030
578.4505	0.263716
578.6774	0.252937
578.9044	0.234143
579.1313	0.225199
579.3582	0.225346
579.5851	0.235134
579.8121	0.235598
580.0391	0.239479
580.2660	0.238678
580.4930	0.238467
580.7200	0.233447
580.9470	0.232118
581.1741	0.274137
581.4011	0.332820
581.6281	0.362457
581.8552	0.361339
582.0822	0.355939
582.3093	0.339444
582.5364	0.316451
582.7635	0.292636
582.9906	0.265277
583.2177	0.248402
583.4449	0.231949
583.6720	0.216825
583.8991	0.208598
584.1263	0.211129
584.3535	0.216086
584.5807	0.221444
584.8079	0.234396
585.0351	0.245259
585.2623	0.253001
585.4895	0.259244
585.7167	0.259118
585.9440	0.247369
586.1713	0.238235
586.3985	0.219293
586.6258	0.216550
586.8531	0.218660
587.0804	0.230472
587.3077	0.245597
587.5350	0.246968
587.7624	0.243171
587.9897	0.231801
588.2171	0.220010
588.4445	0.214441
588.6718	0.208661
588.8992	0.200941
589.1266	0.184720
589.3540	0.172422
589.5815	0.168541
589.8089	0.173392
590.0363	0.169448
590.2638	0.162740
590.4913	0.159027
590.7187	0.156665
590.9462	0.143439
591.1737	0.138039
591.4012	0.132871
591.6288	0.142321
591.8563	0.138250
592.0838	0.136815
592.3114	0.141266
592.5389	0.161664
592.7665	0.190373
592.9941	0.203641
593.2217	0.209463
593.4493	0.208556
593.6769	0.208345
593.9046	0.200582
594.1322	0.192862
594.3598	0.177273
594.5875	0.172949
594.8152	0.188242
595.0429	0.200076
595.2705	0.204358
595.4983	0.200498
595.7260	0.189803
595.9537	0.179509
596.1814	0.167887
596.4092	0.157593
596.6369	0.147953
596.8647	0.147004
597.0925	0.148227
597.3203	0.153036
597.5481	0.159027
597.7759	0.152172
598.0037	0.147679
598.2315	0.143101
598.4594	0.146075
598.6872	0.157340
598.9151	0.180522
599.1430	0.191976
599.3709	0.185120
599.5988	0.177189
599.8267	0.179805
600.0546	0.188474
600.2825	0.184994
600.5105	0.184509
600.7384	0.181724
600.9664	0.185584
601.1944	0.191111
601.4223	0.185542
601.6503	0.177906
601.8783	0.173835
602.1064	0.168393
602.3344	0.168435
602.5624	0.166305
602.7905	0.171156
603.0185	0.179235
603.2466	0.184234
603.4747	0.188580
603.7028	0.190752
603.9309	0.180016
604.1590	0.173645
604.3871	0.167612
604.6152	0.162170
604.8434	0.157382
605.0715	0.154998
605.2997	0.158943
605.5279	0.164933
605.7561	0.172084
605.9843	0.171409
606.2125	0.174320
606.4407	0.162908
606.6689	0.158795
606.8972	0.158268
607.1254	0.154619
607.3537	0.155758
607.5819	0.158015
607.8102	0.156179
608.0385	0.152467
608.2668	0.147299
608.4951	0.148670
608.7235	0.144936
608.9518	0.143270
609.1801	0.138461
609.4085	0.134157
609.6369	0.129960
609.8653	0.138229
610.0936	0.149324
610.3220	0.148965
610.5505	0.145548
610.7789	0.138882
611.0073	0.138313
611.2357	0.132828
611.4642	0.133440
611.6927	0.140359
611.9211	0.136499
612.1496	0.130360
612.3781	0.127935
612.6066	0.125973
612.8351	0.130698
613.0637	0.129158
613.2922	0.127893
613.5208	0.126416
613.7493	0.123737
613.9779	0.124454
614.2065	0.127492
614.4351	0.126205
614.6637	0.124138
614.8923	0.122767
615.1209	0.127766
615.3495	0.124454
615.5782	0.127323
615.8068	0.128314
616.0355	0.126796
616.2642	0.119012
616.4929	0.113042
616.7216	0.109878
616.9503	0.108106
617.1790	0.110912
617.4077	0.110153
617.6365	0.106609
617.8652	0.111228
618.0940	0.107621
618.3227	0.106988
618.5515	0.099141
618.7803	0.092771
619.0091	0.091970
619.2379	0.087350
619.4667	0.086991
619.6956	0.087266
619.9244	0.089797
620.1533	0.094395
620.3821	0.095809
620.6110	0.091653
620.8399	0.089544
621.0688	0.080537
621.2977	0.074989
621.5266	0.075200
621.7556	0.074883
621.9845	0.079798
622.2135	0.081401
622.4424	0.079735
622.6714	0.080748
622.9004	0.083595
623.1294	0.086232
623.3584	0.091231
623.5874	0.087371
623.8164	0.086548
624.0454	0.086612
624.2745	0.086485
624.5035	0.088763
624.7326	0.089628
624.9617	0.086148
625.1908	0.084692
625.4199	0.080115
625.6490	0.080199
625.8781	0.076951
626.1072	0.074905
626.3364	0.071994
626.5655	0.071909
626.7947	0.068492
627.0238	0.070327
627.2530	0.069483
627.4822	0.072141
627.7114	0.071424
627.9406	0.065497
628.1698	0.062480
628.3991	0.061679
628.6283	0.056785
628.8576	0.056827
629.0868	0.059485
629.3161	0.060582
629.5454	0.062143
629.7747	0.062290
630.0040	0.061489
630.2333	0.056743
630.4626	0.057165
630.6920	0.055983
630.9213	0.054043
631.1507	0.051490
631.3801	0.053178
631.6094	0.053283
631.8388	0.051005
632.0682	0.050815
632.2976	0.050710
632.5271	0.047947
632.7565	0.045921
632.9859	0.043686
633.2154	0.045479
633.4448	0.044867
633.6743	0.042821
633.9038	0.043011
634.1333	0.045732
634.3628	0.042673
634.5923	0.040289
634.8218	0.041534
635.0514	0.042483
635.2809	0.040332
635.5105	0.041028
635.7400	0.039614
635.9696	0.041829
636.1992	0.043601
636.4288	0.044150
636.6584	0.045647
636.8880	0.044677
637.1177	0.041534
637.3473	0.042989
637.5770	0.042167
637.8066	0.039171
638.0363	0.040353
638.2660	0.039931
638.4957	0.043285
638.7254	0.042314
638.9551	0.041893
639.1848	0.042673
639.4145	0.039129
639.6443	0.037996
639.8740	0.037881
640.1038	0.034167
640.3336	0.036776
640.5633	0.036509
640.7931	0.035277
641.0229	0.035200
641.2528	0.034776
641.4826	0.033129
641.7124	0.031042
641.9423	0.032350
642.1721	0.031539
642.4020	0.029525
642.6319	0.030444
642.8617	0.027667
643.0916	0.029684
643.3216	0.028567
643.5515	0.029669
643.7814	0.029623
644.0113	0.030118
644.2413	0.025670
644.4712	0.025923
644.7012	0.026943
644.9312	0.026831
645.1612	0.027613
645.3912	0.027012
645.6212	0.027636
645.8512	0.027080
646.0812	0.025545
646.3113	0.026351
646.5413	0.024129
646.7714	0.023139
647.0015	0.024974
647.2316	0.022057
647.4616	0.025750
647.6918	0.027576
647.9219	0.026066
648.1520	0.028525
648.3821	0.030903
648.6123	0.033102
648.8424	0.033517
649.0726	0.034052
649.3028	0.032817
649.5329	0.032591
649.7631	0.030664
649.9933	0.030594
650.2236	0.030824
650.4538	0.029264
650.6840	0.025390
650.9143	0.029216
651.1445	0.027008
651.3748	0.030496
651.6051	0.030248
651.8354	0.030474
652.0657	0.029037
652.2960	0.031962
652.5263	0.031463
652.7566	0.032997
652.9870	0.030814
653.2173	0.029924
653.4477	0.030619
653.6780	0.032161
653.9084	0.032541
654.1388	0.031393
654.3692	0.032166
654.5996	0.034995
654.8300	0.039016
655.0605	0.059733
655.2909	0.171936
655.5213	0.498363
655.7518	0.941796
655.9823	1.000000
656.2128	1.000000
656.4433	1.000000
656.6738	1.000000
656.9043	1.000000
657.1348	0.824549
657.3653	0.669313
657.5959	0.584098
657.8264	0.505143
658.0570	0.460736
658.2875	0.421806
658.5181	0.384233
658.7487	0.362736
658.9793	0.343526
659.2099	0.301383
659.4406	0.221778
659.6712	0.140433
659.9018	0.080185
660.1325	0.054059
660.3632	0.035439
660.5938	0.028357
660.8245	0.026255
661.0552	0.023916
661.2859	0.022895
661.5166	0.023045
661.7474	0.022306
661.9781	0.021622
662.2088	0.022649
662.4396	0.022688
662.6704	0.021387
662.9011	0.022152
663.1319	0.021625
663.3627	0.021076
663.5935	0.020711
663.8243	0.023140
664.0552	0.022386
664.2860	0.022465
664.5168	0.022659
664.7477	0.023221
664.9786	0.023010
665.2094	0.024018
665.4403	0.024549
665.6712	0.025286
665.9021	0.023838
666.1330	0.023922
666.3640	0.020276
666.5949	0.021407
666.8259	0.021986
667.0568	0.020705
667.2878	0.020297
667.5188	0.022275
667.7497	0.019787
667.9807	0.021227
668.2117	0.019522
668.4428	0.020567
668.6738	0.019913
668.9048	0.021832
669.1359	0.020313
669.3669	0.020039
669.5980	0.020630
669.8291	0.021896
670.0602	0.020335
670.2913	0.021896
670.5224	0.022402
670.7535	0.021495
670.9846	0.020820
671.2157	0.023414
671.4469	0.025228
671.6781	0.028540
671.9092	0.030291
672.1404	0.032379
672.3716	0.035269
672.6028	0.035965
672.8340	0.033898
673.0652	0.033877
673.2964	0.032548
673.5277	0.030312
673.7589	0.029848
673.9902	0.027506
674.2214	0.027971
674.4527	0.026810
674.6840	0.023921
674.9153	0.025545
675.1466	0.026536
675.3779	0.026958
675.6093	0.025186
675.8406	0.024617
676.0719	0.026051
676.3033	0.023710
676.5347	0.025165
676.7661	0.023752
676.9974	0.023942
677.2288	0.022085
677.4602	0.023035
677.6917	0.027211
677.9231	0.028203
678.1545	0.028730
678.3860	0.029932
678.6174	0.029321
678.8489	0.030059
679.0804	0.031493
679.3119	0.031282
679.5434	0.034932
679.7749	0.034489
680.0064	0.033877
680.2379	0.034742
680.4694	0.034003
680.7010	0.032105
680.9325	0.034868
681.1641	0.033919
681.3957	0.035522
681.6273	0.032696
681.8589	0.033708
682.0905	0.032970
682.3221	0.031092
682.5537	0.028097
682.7854	0.030080
683.0170	0.027739
683.2487	0.029553
683.4803	0.031725
683.7120	0.032780
683.9437	0.032274
684.1754	0.032358
684.4071	0.033476
684.6388	0.038349
684.8705	0.038222
685.1023	0.040289
685.3340	0.042757
685.5658	0.043791
685.7975	0.044951
686.0293	0.044677
686.2611	0.042926
686.4929	0.043264
686.7247	0.043053
686.9565	0.045605
687.1883	0.044129
687.4202	0.043707
687.6520	0.043369
687.8838	0.041112
688.1157	0.040416
688.3476	0.038623
688.5795	0.036809
688.8114	0.037421
689.0433	0.035522
689.2752	0.034784
689.5071	0.035100
689.7390	0.033160
689.9710	0.034278
690.2029	0.032717
690.4349	0.032358
690.6669	0.032421
690.8988	0.033750
691.1308	0.034805
691.3628	0.038897
691.5948	0.038328
691.8269	0.035670
692.0589	0.036914
692.2909	0.035564
692.5230	0.036260
692.7550	0.036092
692.9871	0.037168
693.2192	0.037674
693.4513	0.039572
693.6834	0.037906
693.9155	0.037442
694.1476	0.036155
694.3797	0.031557
694.6119	0.031409
694.8440	0.032991
695.0762	0.032042
695.3083	0.035164
695.5405	0.030987
695.7727	0.031535
696.0049	0.028835
696.2371	0.030523
696.4693	0.030903
696.7016	0.036788
696.9338	0.040669
697.1660	0.039382
697.3983	0.037927
697.6306	0.037526
697.8628	0.035923
698.0951	0.040458
698.3274	0.037885
698.5597	0.036366
698.7920	0.034910
699.0243	0.037442
699.2567	0.033666
699.4890	0.033033
699.7214	0.034573
699.9537	0.031472
700.1861	0.032527
700.4185	0.029405
700.6509	0.032569
700.8833	0.031071
701.1157	0.028667
701.3481	0.025397
701.5806	0.028519
701.8130	0.029215
702.0454	0.028392
702.2779	0.029764
702.5104	0.028435
702.7429	0.030987
702.9753	0.030987
703.2078	0.027675
703.4403	0.028519
703.6729	0.027886
703.9054	0.028814
704.1379	0.027127
704.3705	0.027549
704.6030	0.028624
704.8356	0.024153
705.0682	0.023667
705.3008	0.023857
705.5334	0.023541
705.7660	0.025777
705.9986	0.021811
706.2312	0.027949
706.4638	0.030628
706.6965	0.031641
706.9291	0.035417
707.1618	0.035396
707.3945	0.039193
707.6272	0.036725
707.8599	0.036429
708.0926	0.038307
708.3253	0.036725
708.5580	0.035944
708.7907	0.036007
709.0235	0.032717
709.2562	0.031282
709.4890	0.033455
709.7217	0.033371
709.9545	0.035564
710.1873	0.034467
710.4201	0.032274
710.6529	0.033771
710.8857	0.032274
711.1186	0.030396
711.3514	0.031219
711.5842	0.031789
711.8171	0.028688
712.0500	0.028540
712.2828	0.026389
712.5157	0.028266
712.7486	0.029004
712.9815	0.028224
713.2144	0.028561
713.4474	0.031050
713.6803	0.032653
713.9132	0.032126
714.1462	0.034953
714.3791	0.032696
714.6121	0.034552
714.8451	0.033645
715.0781	0.032885
715.3111	0.033328
715.5441	0.033792
715.7771	0.033117
716.0102	0.030333
716.2432	0.030987
716.4762	0.028392
716.7093	0.027338
716.9424	0.028055
717.1754	0.026663
717.4085	0.027949
717.6416	0.026979
717.8747	0.026599
718.1078	0.027506
718.3410	0.029278
718.5741	0.026705
718.8072	0.029742
719.0404	0.029468
719.2736	0.030080
719.5067	0.029721
719.7399	0.029342
719.9731	0.027506
720.2063	0.029595
720.4395	0.028477
720.6727	0.030164
720.9060	0.028962
721.1392	0.032126
721.3725	0.028097
721.6057	0.028203
721.8390	0.027696
722.0723	0.029215
722.3055	0.028371
722.5388	0.028624
722.7721	0.027717
723.0055	0.028983
723.2388	0.027042
723.4721	0.028878
723.7055	0.027971
723.9388	0.027338
724.1722	0.025313
724.4056	0.027211
724.6389	0.026726
724.8723	0.027401
725.1057	0.028498
725.3391	0.030671
725.5726	0.031978
725.8060	0.033075
726.0394	0.031852
726.2729	0.033117
726.5063	0.031704
726.7398	0.031978
726.9733	0.032843
727.2068	0.031725
727.4403	0.031198
727.6738	0.032928
727.9073	0.032042
728.1408	0.033413
728.3743	0.034003
728.6079	0.033919
728.8414	0.031831
729.0750	0.032105
729.3086	0.034320
729.5421	0.034805
729.7757	0.035058
730.0093	0.037083
730.2429	0.035796
730.4766	0.037674
730.7102	0.039572
730.9438	0.040543
731.1775	0.042589
731.4111	0.041935
731.6448	0.042251
731.8785	0.042905
732.1122	0.042736
732.3458	0.040838
732.5795	0.040374
732.8133	0.039952
733.0470	0.041260
733.2807	0.045879
733.5145	0.043664
733.7482	0.044740
733.9820	0.045964
734.2157	0.049908
734.4495	0.050668
734.6833	0.048643
734.9171	0.047419
735.1509	0.047757
735.3847	0.045921
735.6185	0.047672
735.8524	0.045099
736.0862	0.047082
736.3201	0.048010
736.5539	0.046829
736.7878	0.046238
737.0217	0.048769
737.2556	0.047989
737.4895	0.047482
737.7234	0.045352
737.9573	0.043580
738.1912	0.039741
738.4252	0.040437
738.6591	0.039235
738.8931	0.042314
739.1271	0.043011
739.3610	0.044129
739.5950	0.045985
739.8290	0.042821
740.0630	0.040627
740.2970	0.040753
740.5310	0.038876
740.7651	0.038792
740.9991	0.036851
741.2332	0.036830
741.4672	0.034826
741.7013	0.033982
741.9354	0.032421
742.1695	0.033687
742.4036	0.033835
742.6377	0.033539
742.8718	0.034868
743.1059	0.032632
743.3400	0.030439
743.5742	0.031029
743.8083	0.029405
744.0425	0.029131
744.2767	0.028983
744.5108	0.030481
744.7450	0.030185
744.9792	0.028667
745.2134	0.029110
745.4477	0.028920
745.6819	0.029510
745.9161	0.030460
746.1504	0.028139
746.3846	0.028139
746.6189	0.027317
746.8532	0.027696
747.0874	0.029679
747.3217	0.031852
747.5560	0.030080
747.7903	0.029890
748.0247	0.029342
748.2590	0.027401
748.4933	0.026958
748.7277	0.026494
748.9620	0.029342
749.1964	0.030734
749.4308	0.033476
749.6652	0.033582
749.8995	0.036450
750.1339	0.035459
750.3684	0.037400
750.6028	0.040015
750.8372	0.037421
751.0717	0.037568
751.3061	0.035670
751.5406	0.038454
751.7750	0.040184
752.0095	0.039045
752.2440	0.037252
752.4785	0.038560
752.7130	0.037231
752.9475	0.033729
753.1820	0.033666
753.4166	0.036218
753.6511	0.037674
753.8856	0.040268
754.1202	0.041661
754.3548	0.039783
754.5894	0.040796
754.8239	0.039762
755.0585	0.037885
755.2931	0.040163
755.5278	0.040036
755.7624	0.043496
755.9970	0.042736
756.2317	0.044086
756.4663	0.048854
756.7010	0.048980
756.9356	0.047820
757.1703	0.050182
757.4050	0.056679
757.6397	0.058873
757.8744	0.057397
758.1091	0.055857
758.3438	0.054718
758.5786	0.054802
758.8133	0.053811
759.0481	0.053072
759.2828	0.054549
759.5176	0.059949
759.7524	0.059021
759.9872	0.058620
760.2220	0.057840
760.4568	0.062206
760.6916	0.062480
760.9264	0.062438
761.1613	0.057354
761.3961	0.059021
761.6310	0.054612
761.8658	0.051364
762.1007	0.048474
762.3356	0.046618
762.5705	0.046744
762.8054	0.046955
763.0403	0.047947
763.2752	0.047145
763.5101	0.049782
763.7450	0.048221
763.9800	0.047672
764.2149	0.048010
764.4499	0.051680
764.6849	0.056258
764.9198	0.057671
765.1548	0.059633
765.3898	0.056236
765.6248	0.053684
765.8599	0.052397
766.0949	0.048284
766.3299	0.042926
766.5650	0.045268
766.8000	0.042293
767.0351	0.040479
767.2701	0.037864
767.5052	0.038075
767.7403	0.037400
767.9754	0.039825
768.2105	0.039277
768.4456	0.042884
768.6808	0.048411
768.9159	0.046554
769.1510	0.047293
769.3862	0.046554
769.6214	0.045626
769.8565	0.044740
770.0917	0.044297
770.3269	0.044339
770.5621	0.045479
770.7973	0.044909
771.0325	0.044825
771.2677	0.046829
771.5030	0.046892
771.7382	0.043770
771.9735	0.042103
772.2087	0.041028
772.4440	0.040332
772.6793	0.040732
772.9146	0.041428
773.1499	0.037927
773.3852	0.038201
773.6205	0.037969
773.8558	0.038876
774.0911	0.033033
774.3265	0.034889
774.5618	0.032316
774.7972	0.031388
775.0326	0.029089
775.2679	0.028392
775.5033	0.028118
775.7387	0.028793
775.9741	0.027232
776.2095	0.025355
776.4450	0.025355
776.6804	0.025503
776.9158	0.025946
777.1513	0.023899
777.3868	0.023752
777.6222	0.025207
777.8577	0.024195
778.0932	0.025692
778.3287	0.024511
778.5642	0.027085
778.7997	0.027338
779.0352	0.030734
779.2707	0.029321
779.5063	0.029152
779.7418	0.031767
779.9774	0.029932
780.2130	0.025608
780.4485	0.029700
780.6841	0.026557
780.9197	0.030080
781.1553	0.034067
781.3909	0.032822
781.6265	0.034067
781.8622	0.034446
782.0978	0.035839
782.3335	0.035923
782.5691	0.033033
782.8048	0.035628
783.0405	0.032949
783.2761	0.031662
783.5118	0.034636
783.7475	0.034404
783.9832	0.034299
784.2190	0.032253
784.4547	0.031219
784.6904	0.029827
784.9262	0.027401
785.1619	0.028118
785.3977	0.030586
785.6335	0.029342
785.8692	0.027317
786.1050	0.028561
786.3408	0.028160
786.5766	0.027127
786.8124	0.025819
787.0483	0.024870
787.2841	0.027485
787.5199	0.028899
787.7558	0.028139
787.9917	0.029742
788.2275	0.030628
788.4634	0.027739
788.6993	0.031683
788.9352	0.032696
789.1711	0.032864
789.4070	0.027296
789.6429	0.027042
789.8789	0.024912
790.1148	0.024342
790.3507	0.025587
790.5867	0.024216
790.8227	0.025608
791.0586	0.023794
791.2946	0.024553
791.5306	0.023288
791.7666	0.021917
792.0026	0.024574
792.2387	0.022043
792.4747	0.023456
792.7107	0.022507
792.9468	0.021874
793.1828	0.020018
793.4189	0.022571
793.6550	0.022613
793.8910	0.026494
794.1271	0.028688
794.3632	0.030312
794.5993	0.032063
794.8355	0.030776
795.0716	0.031789
795.3077	0.032949
795.5439	0.031704
795.7800	0.030017
796.0162	0.027654
796.2523	0.026051
796.4885	0.023267
796.7247	0.023077
796.9609	0.019744
797.1971	0.022697
797.4333	0.019997
797.6695	0.023267
797.9058	0.023246
798.1420	0.022528
798.3783	0.022233
798.6145	0.023604
798.8508	0.023752
799.0871	0.022971
799.3233	0.022128
799.5596	0.021853
799.7959	0.021284
800.0322	0.020461
800.2686	0.020313
800.5049	0.019301
800.7412	0.018753
800.9776	0.018520
801.2139	0.019870
801.4503	0.016938
801.6867	0.017930
801.9230	0.016960
802.1594	0.017951
802.3958	0.016538
802.6322	0.016517
802.8686	0.017993
803.1051	0.016664
803.3415	0.015820
803.5779	0.017107
803.8144	0.017424
804.0508	0.016580
804.2873	0.017677
804.5238	0.016348
804.7603	0.018014
804.9968	0.015441
805.2333	0.017023
805.4698	0.017719
805.7063	0.017656
805.9428	0.018415
806.1794	0.022170
806.4159	0.022908
806.6525	0.023604
806.8890	0.024638
807.1256	0.021706
807.3622	0.023140
807.5988	0.021220
807.8354	0.023435
808.0720	0.021516
808.3086	0.024195
808.5452	0.021832
808.7818	0.023330
809.0185	0.021495
809.2551	0.022528
809.4918	0.020778
809.7284	0.019617
809.9651	0.020377
810.2018	0.019533
810.4385	0.018352
810.6752	0.019153
810.9119	0.019048
811.1486	0.019090
811.3853	0.018373
811.6221	0.018542
811.8588	0.017824
812.0956	0.018077
812.3323	0.015757
812.5691	0.014639
812.8059	0.015441
813.0427	0.014787
813.2795	0.014660
813.5163	0.016285
813.7531	0.017086
813.9899	0.018879
814.2267	0.020187
814.4636	0.018710
814.7004	0.018056
814.9373	0.016812
815.1742	0.015399
815.4110	0.016706
815.6479	0.014808
815.8848	0.014956
816.1217	0.013521
816.3586	0.012909
816.5955	0.013964
816.8324	0.014344
817.0694	0.015504
817.3063	0.012888
817.5433	0.013669
817.7802	0.014935
818.0172	0.014534
818.2542	0.015462
818.4912	0.015061
818.7282	0.013268
818.9652	0.012656
819.2022	0.013247
819.4392	0.013015
819.6762	0.010863
819.9133	0.012445
820.1503	0.014217
820.3874	0.013289
820.6244	0.015504
820.8615	0.016095
821.0986	0.015335
821.3357	0.015525
821.5727	0.014049
821.8099	0.014154
822.0470	0.012361
822.2841	0.012783
822.5212	0.012171
822.7584	0.012129
822.9955	0.012804
823.2327	0.010927
823.4698	0.011918
823.7070	0.011327
823.9442	0.009577
824.1814	0.011475
824.4186	0.009745
824.6558	0.010568
824.8930	0.013078
825.1302	0.009766
825.3675	0.012488
825.6047	0.013732
825.8419	0.012150
826.0792	0.013859
826.3165	0.012888
826.5537	0.012804
826.7910	0.012256
827.0283	0.013690
827.2656	0.013458
827.5029	0.012656
827.7402	0.012382
827.9776	0.011855
828.2149	0.013437
828.4522	0.011834
828.6896	0.012467
828.9270	0.012656
829.1643	0.013205
829.4017	0.012234
829.6391	0.012509
829.8765	0.009999
830.1139	0.010547
830.3513	0.011138
830.5887	0.010294
830.8261	0.010969
831.0636	0.009977
831.3010	0.009893
831.5385	0.010083
831.7759	0.009429
832.0134	0.007256
832.2509	0.010357
832.4884	0.009429
832.7259	0.009345
832.9634	0.007193
833.2009	0.010357
833.4384	0.009619
833.6759	0.010315
833.9135	0.010125
834.1510	0.009640
834.3886	0.009935
834.6261	0.011960
834.8637	0.010420
835.1013	0.011074
835.3389	0.009788
835.5765	0.010378
835.8141	0.010568
836.0517	0.009872
836.2893	0.009745
836.5269	0.009872
836.7646	0.008796
837.0022	0.009049
837.2399	0.008142
837.4775	0.006602
837.7152	0.006117
837.9529	0.008142
838.1906	0.005991
838.4283	0.006856
838.6660	0.005463
838.9037	0.006961
839.1414	0.006877
839.3791	0.007636
839.6169	0.006581
839.8546	0.007910
840.0924	0.007974
840.3302	0.009598
840.5679	0.007741
840.8057	0.007172
841.0435	0.005548
841.2813	0.007784
841.5191	0.006729
841.7569	0.006982
841.9947	0.006455
842.2326	0.007151
842.4704	0.004999
842.7082	0.005463
842.9461	0.005927
843.1840	0.006919
843.4218	0.003945
843.6597	0.005358
843.8976	0.005970
844.1355	0.005759
844.3734	0.005738
844.6113	0.007594
844.8492	0.007214
845.0872	0.004704
845.3251	0.006518
845.5631	0.006370
845.8010	0.005105
846.0390	0.006497
846.2770	0.005653
846.5149	0.007088
846.7529	0.003818
846.9909	0.004071
847.2289	0.004620
847.4669	0.005801
847.7050	0.005822
847.9430	0.005991
848.1810	0.005210
848.4191	0.004514
848.6571	0.004092
848.8952	0.003966
849.1333	0.004535
849.3713	0.006307
849.6094	0.004936
849.8475	0.006012
850.0856	0.004050
850.3237	0.003333
850.5619	0.004767
850.8000	0.005822
851.0381	0.003923
851.2763	0.005105
851.5144	0.004282
851.7526	0.006075
851.9908	0.005084
852.2289	0.006455
852.4671	0.008058
852.7053	0.008564
852.9435	0.008881
853.1817	0.010884
853.4200	0.013563
853.6582	0.013795
853.8964	0.014196
854.1347	0.014681
854.3729	0.014386
854.6112	0.015314
854.8495	0.012551
855.0877	0.014681
855.3260	0.012298
855.5643	0.013627
855.8026	0.011159
856.0409	0.012319
856.2792	0.011475
856.5176	0.014049
856.7559	0.012635
856.9942	0.011053
857.2326	0.011370
857.4710	0.010083
857.7093	0.010821
857.9477	0.010927
858.1861	0.010167
858.4245	0.011180
858.6629	0.011475
858.9013	0.009935
859.1397	0.009155
859.3781	0.010610
859.6166	0.009872
859.8550	0.008627
860.0935	0.008480
860.3319	0.009366
860.5704	0.007720
860.8089	0.008332
861.0473	0.006391
861.2858	0.007910
861.5243	0.005611
861.7628	0.006771
862.0013	0.006834
862.2399	0.006581
862.4784	0.006370
862.7169	0.007404
862.9555	0.006117
863.1940	0.005548
863.4326	0.007109
863.6712	0.008163
863.9098	0.006223
864.1483	0.005759
864.3869	0.005906
864.6255	0.006391
864.8642	0.006223
865.1028	0.006096
865.3414	0.005695
865.5800	0.007256
865.8187	0.004978
866.0573	0.004978
866.2960	0.004430
866.5347	0.005084
866.7733	0.005653
867.0120	0.005843
867.2507	0.005906
867.4894	0.005611
867.7281	0.005231
867.9669	0.006771
868.2056	0.005885
868.4443	0.006560
868.6831	0.005843
868.9218	0.006075
869.1606	0.005210
869.3993	0.005801
869.6381	0.005189
869.8769	0.004198
870.1157	0.004451
870.3545	0.005126
870.5933	0.006539
870.8321	0.006328
871.0709	0.005948
871.3097	0.006898
871.5486	0.006159
871.7874	0.004577
872.0263	0.004240
872.2651	0.005632
872.5040	0.006286
872.7429	0.005210
872.9818	0.004514
873.2207	0.004050
873.4596	0.004767
873.6985	0.004957
873.9374	0.005189
874.1763	0.004219
874.4153	0.004767
874.6542	0.004303
874.8932	0.004620
875.1321	0.007066
875.3711	0.006286
875.6101	0.007615
875.8491	0.007130
876.0880	0.006666
876.3270	0.006391
876.5661	0.005147
876.8051	0.005020
877.0441	0.004366
877.2831	0.006117
877.5222	0.004641
877.7612	0.007045
878.0003	0.008016
878.2393	0.005970
878.4784	0.006729
878.7175	0.007488
878.9566	0.005442
879.1957	0.007868
879.4348	0.008395
879.6739	0.007974
879.9130	0.006898
880.1521	0.008817
880.3913	0.008881
880.6304	0.007868
880.8696	0.008944
881.1087	0.008754
881.3479	0.007425
881.5871	0.005906
881.8262	0.007235
882.0654	0.006877
882.3046	0.005252
882.5438	0.006834
882.7831	0.007868
883.0223	0.007341
883.2615	0.006349
883.5007	0.005801
883.7400	0.006623
883.9792	0.006961
884.2185	0.004388
884.4578	0.006455
884.6971	0.006202
884.9363	0.005991
885.1756	0.006096
885.4149	0.006497
885.6542	0.006982
885.8936	0.006497
886.1329	0.004430
886.3722	0.006813
886.6116	0.006307
886.8509	0.005906
887.0903	0.005780
887.3296	0.007594
887.5690	0.005105
887.8084	0.005716
888.0478	0.005569
888.2872	0.006033
888.5266	0.005273
888.7660	0.005379
889.0054	0.005358
889.2448	0.006940
889.4843	0.006033
889.7237	0.005147
889.9632	0.005147
890.2026	0.005273
890.4421	0.003607
890.6816	0.005358
890.9211	0.005442
891.1606	0.004577
891.4001	0.007003
891.6396	0.004767
891.8791	0.004683
892.1186	0.007488
892.3581	0.004725
892.5977	0.004894
892.8372	0.005421
893.0768	0.006223
893.3163	0.004620
893.5559	0.006033
893.7955	0.004999
894.0351	0.005653
894.2747	0.004219
894.5143	0.005590
894.7539	0.005273
894.9935	0.003860
895.2331	0.004662
895.4727	0.004472
895.7124	0.004894
895.9520	0.005105
896.1917	0.004620
896.4314	0.006370
896.6710	0.004894
896.9107	0.006159
897.1504	0.006497
897.3901	0.007172
897.6298	0.005316
897.8695	0.004767
898.1092	0.004345
898.3489	0.004831
898.5887	0.004514
898.8284	0.006497
899.0682	0.005695
899.3079	0.004134
899.5477	0.004113
899.7875	0.006202
900.0272	0.003881
900.2670	0.003502
900.5068	0.004577
900.7466	0.003860
900.9864	0.004345
901.2263	0.005611
901.4661	0.003691
901.7059	0.004556
901.9458	0.004345
902.1856	0.004641
902.4255	0.002890
902.6654	0.004978
902.9052	0.004430
903.1451	0.004746
903.3850	0.005358
903.6249	0.004092
903.8648	0.004683
904.1047	0.005210
904.3446	0.003797
904.5846	0.005442
904.8245	0.004177
905.0644	0.005105
905.3044	0.004535
905.5444	0.005716
905.7843	0.005084
906.0243	0.004831
906.2643	0.005548
906.5043	0.005759
906.7443	0.004282
906.9843	0.004409
907.2243	0.003565
907.4643	0.005041
907.7043	0.003607
907.9444	0.004430
908.1844	0.004809
908.4245	0.004767
908.6645	0.004008
908.9046	0.004852
909.1447	0.003523
909.3847	0.005738
909.6248	0.003480
909.8649	0.003755
910.1050	0.003227
910.3452	0.003966
910.5853	0.003945
910.8254	0.004978
911.0655	0.005379
911.3057	0.004767
911.5458	0.003544
911.7860	0.004493
912.0262	0.005189
912.2663	0.005379
912.5065	0.003818
912.7467	0.004198
912.9869	0.003185
913.2271	0.003797
913.4673	0.003797
913.7075	0.003059
913.9478	0.001160
914.1880	0.004177
914.4283	0.003544
914.6685	0.003459
914.9088	0.003628
915.1490	0.004303
915.3893	0.002405
915.6296	0.004514
915.8699	0.004134
916.1102	0.004008
916.3505	0.004113
916.5908	0.005400
916.8311	0.004577
917.0714	0.003818
917.3118	0.004915
917.5521	0.002784
917.7925	0.004388
918.0328	0.005084
918.2732	0.004556
918.5136	0.004894
918.7539	0.004134
918.9943	0.004451
919.2347	0.004134
919.4751	0.005020
919.7155	0.005252
919.9560	0.004303
920.1964	0.003691
920.4368	0.004008
920.6773	0.004092
920.9177	0.002109
921.1582	0.003375
921.3986	0.003354
921.6391	0.003164
921.8796	0.003438
922.1201	0.002827
922.3606	0.002974
922.6011	0.002784
922.8416	0.005421
923.0821	0.003544
923.3226	0.002573
923.5631	0.003438
923.8037	0.003923
924.0442	0.002995
924.2848	0.003586
924.5254	0.003059
924.7659	0.002890
925.0065	0.002869
925.2471	0.002320
925.4877	0.003354
925.7283	0.002236
925.9689	0.003270
926.2095	0.002152
926.4501	0.004535
926.6908	0.002932
926.9314	0.002426
927.1720	0.002700
927.4127	0.002341
927.6533	0.002932
927.8940	0.002552
928.1347	0.002341
928.3754	0.003164
928.6161	0.002426
928.8568	0.002552
929.0975	0.002637
929.3382	0.002447
929.5789	0.003016
929.8196	0.001603
930.0604	0.002848
930.3011	0.000844
930.5419	0.003417
930.7826	0.001160
931.0234	0.002658
931.2642	0.002004
931.5049	0.002447
931.7457	0.003396
931.9865	0.001645
932.2273	0.001962
932.4681	0.003312
932.7089	0.002215
932.9498	0.003417
933.1906	0.002067
933.4314	0.003966
933.6723	0.001730
933.9131	0.003945
934.1540	0.002700
934.3949	0.002827
934.6358	0.002088
934.8766	0.002130
935.1175	0.001498
935.3584	0.001582
935.5993	0.002827
935.8403	0.002890
936.0812	0.003185
936.3221	0.002025
936.5630	0.000527
936.8040	0.003101
937.0449	0.001223
937.2859	0.002152
937.5269	0.002278
937.7678	0.002489
938.0088	0.003755
938.2498	0.000316
938.4908	0.001392
938.7318	0.001498
938.9728	0.002531
939.2138	0.003059
939.4549	0.000886
939.6959	0.000359
939.9369	0.001308
940.1780	0.001413
940.4190	0.001666
940.6601	0.001920
940.9012	0.001139
941.1422	0.002004
941.3833	0.000970
941.6244	0.001772
941.8655	0.001076
942.1066	0.001898
942.3477	0.001835
942.5889	0.001055
942.8300	0.000696
943.0711	0.000717
943.3123	0.001962
943.5534	0.001856
943.7946	0.000844
944.0357	0.001666
944.2769	0.002025
944.5181	0.003080
944.7593	0.001392
945.0005	0.001835
945.2417	0.001477
945.4829	0.001519
945.7241	0.000928
945.9653	0.001645
946.2066	0.001709
946.4478	0.001983
946.6891	0.001983
946.9303	-0.001350
947.1716	0.001624
947.4128	0.001962
947.6541	0.002595
947.8954	0.000232
948.1367	0.000949
948.3780	0.001561
948.6193	0.001245
948.8606	0.001477
949.1019	0.002067
949.3433	0.001793
949.5846	0.000844
949.8259	0.001245
950.0673	0.001287
950.3086	0.001139
950.5500	0.001730
950.7914	0.002510
951.0327	0.000548
951.2741	0.001751
951.5155	0.002405
951.7569	0.001603
951.9983	0.000105
952.2398	0.001519
952.4812	0.002152
952.7226	0.001941
952.9640	0.001582
953.2055	0.002215
953.4469	0.002363
953.6884	0.002109
953.9299	0.000654
954.1713	0.001582
954.4128	0.001920
954.6543	0.002679
954.8958	0.002784
955.1373	0.000991
955.3788	0.001477
955.6203	0.002236
955.8618	0.000570
956.1034	0.000844
956.3449	0.002363
956.5865	0.000359
956.8280	0.001603
957.0696	0.001814
957.3111	0.002194
957.5527	0.001266
957.7943	0.001245
958.0359	0.002088
958.2775	0.001793
958.5191	0.001603
958.7607	0.001434
959.0023	0.000485
959.2439	0.001181
959.4856	0.000506
959.7272	0.002573
959.9688	0.001287
960.2105	0.002130
960.4522	-0.000464
960.6938	0.001434
960.9355	0.000570
961.1772	0.002004
961.4189	0.001223
961.6606	0.003185
961.9023	0.000127
962.1440	0.001392
962.3857	0.000127
962.6274	0.000886
962.8692	0.000232
963.1109	0.000844
963.3527	0.000654
963.5944	0.001118
963.8362	0.000675
964.0779	0.001392
964.3197	0.001645
964.5615	-0.000316
964.8033	0.001097
965.0451	0.000042
965.2869	0.001055
965.5287	0.001413
965.7705	0.001055
966.0123	0.002405
966.2542	0.000865
966.4960	0.001076
966.7379	0.002763
966.9797	0.001709
967.2216	0.001856
967.4634	0.001983
967.7053	0.000316
967.9472	0.001624
968.1891	0.002426
968.4310	0.001582
968.6729	0.000991
968.9148	-0.000359
969.1567	0.001835
969.3987	0.001898
969.6406	0.000127
969.8825	0.001477
970.1245	0.000464
970.3664	0.001793
970.6084	0.000612
970.8504	0.001730
971.0923	0.000422
971.3343	0.002004
971.5763	0.002447
971.8183	0.000738
972.0603	0.001898
972.3023	0.003101
972.5443	0.000675
972.7864	0.001055
973.0284	0.000042
973.2704	0.002552
973.5125	-0.000021
973.7545	0.000485
973.9966	-0.000127
974.2387	0.000422
974.4807	-0.000148
974.7228	0.002320
974.9649	0.001076
975.2070	0.000886
975.4491	0.001898
975.6912	0.000802
975.9333	0.001835
976.1755	0.003375
976.4176	0.000759
976.6597	0.000274
976.9019	0.000991
977.1440	0.001477
977.3862	-0.001350
977.6283	0.001160
977.8705	0.000591
978.1127	0.001814
978.3549	0.001603
978.5971	0.000527
978.8393	0.000591
979.0815	0.001835
979.3237	0.000612
979.5659	0.001498
979.8082	-0.000127
980.0504	0.001181
980.2926	0.000359
980.5349	0.000148
980.7771	0.000738
981.0194	0.001223
981.2617	0.000633
981.5040	0.001055
981.7462	0.000527
981.9885	-0.000570
982.2308	0.000148
982.4731	0.001455
982.7155	0.000823
982.9578	-0.000253
983.2001	0.000380
983.4424	0.001160
983.6848	0.001983
983.9271	0.002194
984.1695	0.001245
984.4118	-0.000127
984.6542	0.000000
984.8966	0.001645
985.1390	0.000738
985.3814	0.001434
985.6238	0.000844
985.8662	0.000865
986.1086	0.000654
986.3510	0.001498
986.5934	0.000759
986.8358	0.000063
987.0783	-0.000084
987.3207	0.000295
987.5632	0.000886
987.8056	0.000886
988.0481	-0.000105
988.2906	0.001835
988.5331	0.000696
988.7756	-0.000021
989.0180	0.000485
989.2605	0.002152
989.5031	0.000865
989.7456	-0.000253
989.9881	0.000295
990.2306	0.001371
990.4732	0.000591
990.7157	0.000316
990.9582	0.000190
991.2008	0.000253
991.4434	0.000970
991.6859	0.000232
991.9285	0.000506
992.1711	0.000949
992.4137	0.000380
992.6563	0.001962
992.8989	-0.000042
993.1415	0.001920
993.3841	-0.000928
993.6267	0.001329
993.8694	0.000485
994.1120	0.001688
994.3547	0.000654
994.5973	0.001181
994.8400	-0.000506
995.0826	0.001076
995.3253	-0.000127
995.5680	0.000506
995.8107	0.001118
996.0534	0.000949
996.2961	0.000591
996.5388	0.002109
996.7815	-0.000127
997.0242	0.000612
997.2670	0.001287
997.5097	0.000316
997.7524	0.000527
997.9952	0.001245
998.2379	0.000928
998.4807	0.000527
998.7235	0.001603
998.9662	0.000865
999.2090	0.000570
999.4518	0.000633
999.6946	0.000127
999.9374	-0.000591
1000.1802	0.001898
1000.4230	0.001498
1000.6659	0.001034
1000.9087	0.000063
1001.1515	0.001434
1001.3944	-0.000169
1001.6372	0.001266
1001.8801	-0.000253
1002.1230	-0.000042
1002.3658	-0.000548
1002.6087	0.000443
1002.8516	0.000844
1003.0945	0.000675
1003.3374	-0.000211
1003.5803	0.001013
1003.8232	0.001329
1004.0661	-0.000738
1004.3091	0.000127
1004.5520	0.001814
1004.7949	0.001308
1005.0379	0.001118
1005.2808	0.000907
1005.5238	0.001624
1005.7667	0.001076
1006.0097	0.000527
1006.2527	0.000211
1006.4957	0.000991
1006.7387	-0.000063
1006.9817	0.001308
1007.2247	0.000380
1007.4677	0.001392
1007.7107	0.000612
1007.9538	0.001413
1008.1968	0.000612
1008.4398	-0.000190
1008.6829	0.000295
1008.9259	0.000548
1009.1690	0.001034
1009.4121	0.001097
1009.6551	0.000654
1009.8982	0.002658
1010.1413	0.000021
1010.3844	0.001645
1010.6275	0.000316
1010.8706	-0.000190
1011.1137	-0.000190
1011.3568	0.001013
1011.6000	0.000717
1011.8431	0.001245
1012.0863	0.001034
1012.3294	0.000021
1012.5726	-0.000506
1012.8157	-0.000570
1013.0589	0.001793
1013.3021	0.000675
1013.5452	0.000042
1013.7884	-0.000274
1014.0316	0.001160
1014.2748	0.001266
1014.5180	0.000865
1014.7613	-0.000042
1015.0045	0.000232
1015.2477	0.001329
1015.4909	0.000148
1015.7342	0.002637
1015.9774	0.001392
1016.2207	0.001898
1016.4640	0.001329
1016.7072	0.002700
1016.9505	0.001202
1017.1938	0.000780
1017.4371	0.000654
1017.6804	0.000759
1017.9237	0.000485
1018.1670	0.001666
1018.4103	0.000359
1018.6536	-0.000127
1018.8969	0.000865
1019.1403	0.001329
1019.3836	0.000570
1019.6270	0.000865
1019.8703	0.000190
1020.1137	0.001519
1020.3571	0.000042
1020.6004	0.000548
1020.8438	0.000844
1021.0872	0.001160
1021.3306	0.000338
1021.5740	0.000464
1021.8174	0.000063
1022.0608	-0.000443
1022.3042	-0.000401
1022.5477	-0.000063
1022.7911	-0.000253
1023.0345	-0.001181
