# Wavelength (nm)	Intensity (a.u.)
197.7802	0.000582
197.9842	0.000434
198.1882	0.000055
198.3922	0.000118
198.5963	0.001680
198.8003	-0.000937
199.0044	0.001342
199.2085	-0.000304
199.4126	-0.000621
199.6168	0.000941
199.8209	0.001490
200.0251	0.000055
200.2292	0.001004
200.4334	-0.000368
200.6376	-0.000346
200.8418	-0.000558
201.0461	0.000266
201.2503	-0.000157
201.4546	0.000160
201.6589	-0.000705
201.8631	0.001743
202.0674	0.000118
202.2718	0.000878
202.4761	-0.001127
202.6805	0.000055
202.8848	0.000076
203.0892	-0.000558
203.2936	0.000055
203.4980	0.001068
203.7024	-0.000747
203.9069	0.000983
204.1113	0.000139
204.3158	0.000603
204.5203	-0.001212
204.7248	-0.000368
204.9293	-0.000790
205.1338	0.001954
205.3384	-0.000980
205.5430	0.001300
205.7475	-0.000853
205.9521	0.000645
206.1567	0.000603
206.3614	0.001447
206.5660	-0.000705
206.7706	0.000413
206.9753	-0.000135
207.1800	-0.000325
207.3847	0.000603
207.5894	-0.000135
207.7941	-0.000009
207.9989	-0.000536
208.2036	0.001363
208.4084	0.001068
208.6132	-0.000811
208.8180	-0.000283
209.0228	0.000434
209.2276	0.000456
209.4325	0.000561
209.6373	0.000730
209.8422	-0.000663
210.0471	0.001954
210.2520	-0.000937
210.4569	0.000983
210.6618	-0.000790
210.8668	0.000793
211.0718	0.000456
211.2767	0.000308
211.4817	-0.001317
211.6867	0.000561
211.8918	0.001025
212.0968	0.000287
212.3018	-0.000009
212.5069	-0.001085
212.7120	-0.000705
212.9171	0.001046
213.1222	-0.000283
213.3273	0.000329
213.5325	-0.001001
213.7376	-0.000030
213.9428	-0.000811
214.1480	-0.000051
214.3532	-0.000135
214.5584	0.000667
214.7636	-0.001549
214.9689	0.000223
215.1741	-0.000769
215.3794	0.000139
215.5847	-0.000410
215.7900	0.001089
215.9953	-0.000114
216.2007	0.000012
216.4060	-0.000135
216.6114	0.000097
216.8168	0.000519
217.0222	0.000540
217.2276	0.000055
217.4330	0.000730
217.6384	-0.000304
217.8439	0.000413
218.0494	-0.001106
218.2548	-0.000769
218.4603	0.000329
218.6659	0.000941
218.8714	-0.000241
219.0769	-0.000515
219.2825	-0.000790
219.4881	-0.000916
219.6936	0.000434
219.8992	0.000329
220.1049	0.000371
220.3105	0.001046
220.5161	0.000582
220.7218	0.000519
220.9275	-0.000283
221.1332	0.000329
221.3389	0.001996
221.5446	-0.000241
221.7503	0.001173
221.9561	0.000856
222.1618	0.000329
222.3676	-0.000473
222.5734	-0.000283
222.7792	0.000097
222.9850	0.001975
223.1909	0.001215
223.3967	0.000287
223.6026	-0.000346
223.8085	-0.000790
224.0144	0.000329
224.2203	0.000477
224.4262	0.000076
224.6322	-0.000262
224.8381	-0.000093
225.0441	0.000540
225.2501	0.000266
225.4561	0.000308
225.6621	-0.000093
225.8681	0.001173
226.0742	0.001490
226.2802	-0.001001
226.4863	0.002228
226.6924	-0.000178
226.8985	0.001511
227.1046	0.000202
227.3107	0.000667
227.5169	-0.000684
227.7230	0.000413
227.9292	0.001384
228.1354	-0.000051
228.3416	0.000540
228.5478	-0.000241
228.7541	0.001701
228.9603	0.000498
229.1666	0.000793
229.3729	-0.000051
229.5791	-0.000009
229.7855	0.000202
229.9918	0.000519
230.1981	0.001996
230.4045	-0.000199
230.6108	0.000139
230.8172	0.001152
231.0236	-0.000346
231.2300	-0.000494
231.4364	0.001405
231.6429	0.000244
231.8493	0.001532
232.0558	-0.001317
232.2623	0.000266
232.4688	-0.000241
232.6753	0.000878
232.8818	-0.000536
233.0884	0.000941
233.2949	0.000139
233.5015	-0.000220
233.7081	-0.000958
233.9147	0.000667
234.1213	-0.000536
234.3279	0.000561
234.5346	0.000350
234.7413	0.001173
234.9479	0.000645
235.1546	0.001553
235.3613	0.000139
235.5680	0.001173
235.7748	0.001743
235.9815	0.000202
236.1883	0.002524
236.3951	-0.000093
236.6018	0.000139
236.8087	-0.000536
237.0155	0.000392
237.2223	-0.000663
237.4292	-0.000199
237.6360	0.000688
237.8429	0.000266
238.0498	-0.000199
238.2567	0.000920
238.4636	0.001827
238.6706	0.001363
238.8775	0.001004
239.0845	0.001004
239.2915	0.000350
239.4985	0.000223
239.7055	0.001131
239.9125	-0.000199
240.1195	-0.000536
240.3266	0.000540
240.5337	0.000076
240.7407	0.000329
240.9478	0.000920
241.1549	0.000139
241.3621	0.000097
241.5692	-0.000199
241.7764	0.001152
241.9835	-0.000283
242.1907	0.002017
242.3979	-0.000093
242.6051	0.000160
242.8124	-0.000304
243.0196	0.000139
243.2269	-0.000093
243.4341	0.000434
243.6414	-0.000262
243.8487	0.000962
244.0560	-0.000916
244.2634	0.000308
244.4707	0.001680
244.6781	-0.000642
244.8854	-0.000558
245.0928	0.002165
245.3002	-0.000241
245.5076	0.001068
245.7151	-0.000958
245.9225	0.000033
246.1300	0.000519
246.3375	0.000308
246.5449	0.000329
246.7524	0.000202
246.9600	0.000962
247.1675	-0.001254
247.3750	-0.000346
247.5826	-0.000937
247.7902	-0.000051
247.9978	0.000012
248.2054	-0.000705
248.4130	0.001004
248.6206	0.000308
248.8283	-0.000621
249.0359	0.000012
249.2436	0.000244
249.4513	-0.000536
249.6590	0.000350
249.8667	-0.001085
250.0745	-0.000009
250.2822	-0.000853
250.4900	0.000730
250.6978	0.000983
250.9056	0.001616
251.1134	-0.000389
251.3212	-0.000642
251.5290	-0.000621
251.7369	0.001089
251.9447	0.000456
252.1526	-0.000030
252.3605	-0.000747
252.5684	0.000181
252.7763	0.000540
252.9843	0.000266
253.1922	-0.000600
253.4002	-0.000368
253.6082	0.001384
253.8162	0.000434
254.0242	0.000941
254.2322	0.002397
254.4402	-0.000452
254.6483	-0.000220
254.8564	0.000266
255.0644	-0.000325
255.2725	-0.000431
255.4806	0.001089
255.6888	0.001025
255.8969	0.000814
256.1051	0.000202
256.3132	-0.000220
256.5214	0.000477
256.7296	0.000350
256.9378	0.000160
257.1460	0.001215
257.3543	-0.000431
257.5625	0.001680
257.7708	0.001257
257.9791	0.001384
258.1874	0.000709
258.3957	0.000055
258.6040	-0.000536
258.8124	-0.000325
259.0207	0.000097
259.2291	0.000624
259.4375	0.000139
259.6459	0.001321
259.8543	0.000329
260.0627	0.001152
260.2711	-0.000135
260.4796	0.001173
260.6881	0.000097
260.8965	0.000160
261.1050	0.000582
261.3135	-0.000178
261.5221	-0.000178
261.7306	0.000603
261.9392	0.000392
262.1477	0.001912
262.3563	-0.000262
262.5649	0.000329
262.7735	0.001194
262.9822	0.000878
263.1908	-0.000473
263.3995	0.000371
263.6081	-0.000199
263.8168	0.000730
264.0255	0.000498
264.2342	0.000667
264.4429	-0.000178
264.6517	0.000540
264.8604	-0.000684
265.0692	0.000033
265.2780	-0.000325
265.4868	-0.001845
265.6956	0.000287
265.9044	0.001300
266.1133	0.000645
266.3221	0.000139
266.5310	0.001089
266.7399	-0.000346
266.9488	0.001215
267.1577	0.000244
267.3666	0.001068
267.5755	0.000899
267.7845	0.000329
267.9935	-0.000558
268.2024	0.000308
268.4114	0.000371
268.6205	-0.000346
268.8295	0.001004
269.0385	0.000835
269.2476	0.000561
269.4566	0.000033
269.6657	0.001891
269.8748	0.000139
270.0839	0.000814
270.2931	-0.000705
270.5022	0.000244
270.7114	-0.000958
270.9205	-0.000030
271.1297	0.000244
271.3389	-0.000410
271.5481	0.000097
271.7573	0.000624
271.9666	-0.000621
272.1758	0.001405
272.3851	-0.001338
272.5944	0.001089
272.8037	-0.001001
273.0130	0.001954
273.2223	0.000266
273.4316	-0.000030
273.6410	0.000983
273.8504	0.001004
274.0597	-0.000157
274.2691	0.002102
274.4785	0.000287
274.6880	0.000434
274.8974	0.000350
275.1069	0.000941
275.3163	-0.000262
275.5258	-0.000536
275.7353	-0.000747
275.9448	0.000329
276.1543	-0.000114
276.3639	0.001089
276.5734	0.000181
276.7830	0.000920
276.9926	0.002460
277.2022	-0.000663
277.4118	0.000582
277.6214	0.000624
277.8310	-0.000621
278.0407	0.001701
278.2503	-0.000178
278.4600	0.000730
278.6697	0.000688
278.8794	-0.000958
279.0891	0.000561
279.2989	0.000688
279.5086	0.001447
279.7184	0.000181
279.9281	0.000772
280.1379	-0.000051
280.3477	-0.000410
280.5576	0.001279
280.7674	-0.000346
280.9772	0.000920
281.1871	-0.000663
281.3970	0.000709
281.6069	0.000308
281.8168	0.001363
282.0267	-0.000579
282.2366	0.001110
282.4466	-0.000726
282.6565	0.000160
282.8665	-0.000579
283.0765	-0.000558
283.2865	0.001490
283.4965	0.000793
283.7065	0.000793
283.9166	0.000498
284.1266	-0.000304
284.3367	-0.000072
284.5468	0.001068
284.7569	-0.000072
284.9670	-0.000072
285.1771	0.000434
285.3873	0.000477
285.5974	-0.000325
285.8076	-0.001929
286.0178	-0.000072
286.2280	0.001152
286.4382	0.001046
286.6484	0.000350
286.8587	0.001004
287.0689	0.000983
287.2792	-0.000410
287.4895	0.001933
287.6998	0.001194
287.9101	-0.000811
288.1204	-0.000262
288.3308	0.000519
288.5411	0.000181
288.7515	0.000329
288.9619	0.001722
289.1723	-0.000030
289.3827	0.001637
289.5931	-0.000241
289.8035	0.000498
290.0140	-0.000241
290.2245	0.001827
290.4349	0.000561
290.6454	0.001173
290.8559	0.002123
291.0665	0.001046
291.2770	0.000835
291.4875	-0.000241
291.6981	0.000477
291.9087	-0.000473
292.1193	-0.000262
292.3299	-0.000093
292.5405	-0.000241
292.7511	0.000371
292.9618	0.000012
293.1724	0.000540
293.3831	0.000033
293.5938	0.000645
293.8045	0.000371
294.0152	0.001447
294.2260	0.000223
294.4367	-0.000304
294.6475	0.000160
294.8582	0.000519
295.0690	0.001532
295.2798	0.000519
295.4906	-0.000410
295.7015	0.000582
295.9123	-0.000958
296.1232	0.000645
296.3340	-0.000705
296.5449	0.000223
296.7558	0.001848
296.9667	0.001046
297.1777	-0.000241
297.3886	-0.000114
297.5995	-0.000199
297.8105	0.000055
298.0215	0.000519
298.2325	0.000097
298.4435	0.000751
298.6545	0.000519
298.8656	-0.000874
299.0766	0.000772
299.2877	-0.000579
299.4988	0.000498
299.7099	0.000498
299.9210	-0.000072
300.1321	-0.000135
300.3432	0.000941
300.5544	0.000329
300.7655	0.000076
300.9767	-0.000346
301.1879	0.001511
301.3991	0.000793
301.6103	0.001637
301.8215	0.000582
302.0328	0.001321
302.2441	-0.000368
302.4553	0.001025
302.6666	0.000899
302.8779	0.000835
303.0892	0.000899
303.3006	0.000772
303.5119	-0.000368
303.7233	0.001279
303.9346	-0.001043
304.1460	0.001363
304.3574	0.000350
304.5688	0.001173
304.7803	-0.000536
304.9917	0.000941
305.2031	-0.000621
305.4146	0.000983
305.6261	-0.000199
305.8376	0.001236
306.0491	0.000434
306.2606	0.000076
306.4722	0.001110
306.6837	-0.000579
306.8953	-0.000093
307.1069	-0.000199
307.3184	0.000561
307.5301	-0.000368
307.7417	-0.000030
307.9533	0.000118
308.1650	-0.001233
308.3766	0.000097
308.5883	0.000139
308.8000	0.000266
309.0117	-0.000515
309.2234	0.001848
309.4351	-0.000114
309.6469	0.001658
309.8586	0.000688
310.0704	-0.000030
310.2822	0.001975
310.4940	-0.000199
310.7058	-0.000811
310.9176	-0.000262
311.1295	0.000645
311.3413	0.001004
311.5532	-0.000030
311.7651	0.001257
311.9770	0.000371
312.1889	0.000308
312.4008	0.001954
312.6127	0.001722
312.8247	0.000814
313.0366	0.000856
313.2486	0.000603
313.4606	0.000456
313.6726	0.001173
313.8846	0.001658
314.0967	-0.000051
314.3087	0.000139
314.5208	0.001300
314.7328	0.000603
314.9449	0.000603
315.1570	0.001806
315.3692	0.000012
315.5813	0.000962
315.7934	0.000751
316.0056	0.000540
316.2177	0.000624
316.4299	0.000983
316.6421	0.000202
316.8543	0.000899
317.0666	0.000181
317.2788	0.001300
317.4911	-0.000241
317.7033	0.000899
317.9156	0.000266
318.1279	0.001384
318.3402	0.000582
318.5525	0.000223
318.7649	0.001110
318.9772	0.001236
319.1896	0.001173
319.4019	0.002165
319.6143	-0.000030
319.8267	0.001532
320.0392	0.000033
320.2516	0.001722
320.4640	0.000498
320.6765	0.000582
320.8890	-0.000811
321.1014	0.001869
321.3139	-0.000452
321.5265	0.001975
321.7390	0.001279
321.9515	0.001680
322.1641	0.001553
322.3766	0.001490
322.5892	-0.000241
322.8018	0.000856
323.0144	0.001236
323.2270	0.002292
323.4397	0.000688
323.6523	0.000667
323.8650	0.000392
324.0777	0.001152
324.2904	0.000772
324.5031	0.002186
324.7158	0.000899
324.9285	0.001975
325.1412	0.001384
325.3540	0.001447
325.5668	-0.000178
325.7796	0.001257
325.9924	0.001912
326.2052	0.000920
326.4180	0.001701
326.6308	0.002545
326.8437	0.002482
327.0566	0.001637
327.2694	0.000941
327.4823	0.001996
327.6952	0.001363
327.9082	0.002460
328.1211	0.002460
328.3340	0.002566
328.5470	0.000624
328.7600	0.002482
328.9730	0.001511
329.1860	0.002249
329.3990	0.000097
329.6120	0.001131
329.8251	0.002102
330.0381	0.001173
330.2512	0.001342
330.4643	0.001574
330.6774	0.000456
330.8905	0.000962
331.1036	0.002270
331.3167	0.002608
331.5299	0.000055
331.7431	0.001363
331.9562	0.001279
332.1694	0.002228
332.3826	0.000434
332.5959	0.002883
332.8091	0.002081
333.0223	0.002081
333.2356	0.001300
333.4489	0.002059
333.6622	0.001363
333.8755	0.000667
334.0888	0.001827
334.3021	0.001342
334.5154	0.002165
334.7288	0.002482
334.9422	0.002967
335.1555	0.000835
335.3689	0.001553
335.5823	0.001933
335.7958	0.001743
336.0092	0.002186
336.2227	0.002081
336.4361	0.002165
336.6496	0.002102
336.8631	0.002460
337.0766	0.000920
337.2901	0.002228
337.5036	0.003072
337.7172	0.004972
337.9307	0.002249
338.1443	0.002038
338.3579	0.002249
338.5715	0.002186
338.7851	0.002397
338.9987	0.002081
339.2124	0.001806
339.4260	0.002292
339.6397	0.001194
339.8533	0.002376
340.0670	0.002313
340.2807	0.002566
340.4945	0.001236
340.7082	0.002313
340.9219	0.002081
341.1357	0.003579
341.3495	0.002081
341.5633	0.002503
341.7771	0.002270
341.9909	0.002313
342.2047	0.002334
342.4185	0.002397
342.6324	0.002650
342.8463	0.004212
343.0601	0.002059
343.2740	0.002798
343.4879	0.002123
343.7019	0.002249
343.9158	0.002608
344.1297	0.002545
344.3437	0.004085
344.5577	0.001996
344.7717	0.002524
344.9857	0.002988
345.1997	0.003368
345.4137	0.003368
345.6277	0.002608
345.8418	0.003431
346.0559	0.002904
346.2699	0.003389
346.4840	0.002693
346.6981	0.003853
346.9123	0.004402
347.1264	0.004085
347.3406	0.001490
347.5547	0.002629
347.7689	0.002228
347.9831	0.001616
348.1973	0.003178
348.4115	0.004824
348.6257	0.004107
348.8400	0.001912
349.0542	0.004191
349.2685	0.003326
349.4828	0.003663
349.6971	0.004444
349.9114	0.004866
350.1257	0.003980
350.3400	0.004550
350.5544	0.004423
350.7687	0.005098
350.9831	0.004001
351.1975	0.004064
351.4119	0.005056
351.6263	0.003980
351.8407	0.004212
352.0552	0.004444
352.2696	0.003706
352.4841	0.003262
352.6986	0.005014
352.9131	0.003917
353.1276	0.004107
353.3421	0.002840
353.5566	0.003537
353.7712	0.004740
353.9858	0.005943
354.2003	0.004803
354.4149	0.005943
354.6295	0.003874
354.8441	0.004191
355.0588	0.003706
355.2734	0.005521
355.4881	0.005858
355.7027	0.004972
355.9174	0.004972
356.1321	0.005225
356.3468	0.004465
356.5615	0.005415
356.7763	0.004508
356.9910	0.005732
357.2058	0.003980
357.4206	0.005056
357.6353	0.003853
357.8501	0.005521
358.0650	0.005985
358.2798	0.005689
358.4946	0.004191
358.7095	0.005816
358.9243	0.004107
359.1392	0.005246
359.3541	0.005478
359.5690	0.007040
359.7839	0.004423
359.9989	0.006111
360.2138	0.004613
360.4288	0.004697
360.6438	0.005457
360.8587	0.006449
361.0737	0.005626
361.2888	0.007146
361.5038	0.003558
361.7188	0.006407
361.9339	0.005985
362.1489	0.004634
362.3640	0.004887
362.5791	0.005985
362.7942	0.006681
363.0093	0.004233
363.2245	0.005795
363.4396	0.006998
363.6548	0.005584
363.8699	0.005246
364.0851	0.006133
364.3003	0.007188
364.5155	0.006090
364.7308	0.007019
364.9460	0.005394
365.1612	0.008074
365.3765	0.005879
365.5918	0.006787
365.8071	0.005795
366.0224	0.006745
366.2377	0.006048
366.4530	0.007884
366.6684	0.006534
366.8837	0.007462
367.0991	0.007969
367.3145	0.007272
367.5299	0.007230
367.7453	0.008032
367.9607	0.007146
368.1761	0.008011
368.3916	0.006386
368.6070	0.008074
368.8225	0.007969
369.0380	0.008053
369.2535	0.008264
369.4690	0.009509
369.6845	0.007948
369.9001	0.008982
370.1156	0.008707
370.3312	0.009931
370.5468	0.007019
370.7624	0.008939
370.9780	0.006470
371.1936	0.009467
371.4092	0.008918
371.6249	0.009214
371.8405	0.008391
372.0562	0.008855
372.2719	0.009172
372.4876	0.010332
372.7033	0.008370
372.9190	0.009108
373.1348	0.008939
373.3505	0.010480
373.5663	0.009108
373.7820	0.009425
373.9978	0.008686
374.2136	0.011008
374.4294	0.007652
374.6453	0.012253
374.8611	0.010965
375.0770	0.011113
375.2928	0.013604
375.5087	0.012696
375.7246	0.011704
375.9405	0.014089
376.1564	0.010965
376.3724	0.013667
376.5883	0.014173
376.8043	0.011873
377.0203	0.012401
377.2362	0.012168
377.4522	0.013646
377.6682	0.014363
377.8843	0.012126
378.1003	0.014321
378.3164	0.014469
378.5324	0.015693
378.7485	0.015018
378.9646	0.014722
379.1807	0.015925
379.3968	0.015798
379.6129	0.015039
379.8291	0.016579
380.0452	0.015271
380.2614	0.015841
380.4776	0.014785
380.6938	0.016917
380.9100	0.014828
381.1262	0.018204
381.3424	0.015545
381.5587	0.016748
381.7749	0.017128
381.9912	0.016453
382.2075	0.016199
382.4238	0.019597
382.6401	0.018078
382.8564	0.017677
383.0728	0.017656
383.2891	0.019091
383.5055	0.017318
383.7219	0.016621
383.9382	0.020272
384.1546	0.018880
384.3711	0.018500
384.5875	0.019682
384.8039	0.018183
385.0204	0.019386
385.2368	0.017381
385.4533	0.018669
385.6698	0.018880
385.8863	0.020251
386.1028	0.018436
386.3194	0.019112
386.5359	0.019217
386.7525	0.020969
386.9690	0.020061
387.1856	0.022678
387.4022	0.021286
387.6188	0.022847
387.8355	0.023206
388.0521	0.022721
388.2687	0.021940
388.4854	0.023290
388.7021	0.021074
388.9188	0.021940
389.1355	0.022995
389.3522	0.023501
389.5689	0.022066
389.7856	0.022488
390.0024	0.022784
390.2192	0.024472
390.4359	0.022467
390.6527	0.021729
390.8695	0.025696
391.0863	0.026562
391.3032	0.024409
391.5200	0.024029
391.7369	0.023881
391.9537	0.025422
392.1706	0.025401
392.3875	0.026899
392.6044	0.025823
392.8213	0.027849
393.0383	0.028503
393.2552	0.027997
393.4722	0.027849
393.6891	0.028123
393.9061	0.026920
394.1231	0.026920
394.3401	0.025865
394.5572	0.027216
394.7742	0.029115
394.9912	0.029959
395.2083	0.028883
395.4254	0.028672
395.6425	0.028377
395.8596	0.031352
396.0767	0.025886
396.2938	0.027511
396.5109	0.026435
396.7281	0.029263
396.9453	0.028018
397.1624	0.031732
397.3796	0.030213
397.5968	0.031458
397.8140	0.031563
398.0313	0.031563
398.2485	0.032830
398.4658	0.035995
398.6830	0.033927
398.9003	0.032872
399.1176	0.034813
399.3349	0.034265
399.5522	0.032576
399.7696	0.037156
399.9869	0.033526
400.2043	0.032175
400.4216	0.031795
400.6390	0.031352
400.8564	0.029769
401.0738	0.033632
401.2912	0.033821
401.5087	0.032935
401.7261	0.032070
401.9436	0.032534
402.1610	0.034412
402.3785	0.035447
402.5960	0.032407
402.8135	0.034201
403.0310	0.032661
403.2486	0.030972
403.4661	0.034307
403.6837	0.033526
403.9013	0.035383
404.1189	0.032028
404.3365	0.035552
404.5541	0.034286
404.7717	0.033104
404.9893	0.033357
405.2070	0.037135
405.4246	0.035151
405.6423	0.036101
405.8600	0.036523
406.0777	0.034623
406.2954	0.036122
406.5131	0.035193
406.7309	0.033610
406.9486	0.034856
407.1664	0.034328
407.3842	0.034834
407.6020	0.032407
407.8198	0.031943
408.0376	0.032745
408.2554	0.033357
408.4733	0.031542
408.6911	0.034391
408.9090	0.034455
409.1269	0.034476
409.3448	0.036945
409.5627	0.034033
409.7806	0.035425
409.9985	0.034581
410.2165	0.032998
410.4344	0.033610
410.6524	0.035320
410.8704	0.034159
411.0884	0.032154
411.3064	0.035088
411.5244	0.034033
411.7424	0.034138
411.9605	0.035447
412.1785	0.033990
412.3966	0.036101
412.6147	0.037451
412.8328	0.035636
413.0509	0.035130
413.2690	0.035658
413.4871	0.033716
413.7053	0.036227
413.9234	0.036945
414.1416	0.035109
414.3598	0.036713
414.5780	0.033864
414.7962	0.036671
415.0144	0.034412
415.2326	0.038085
415.4509	0.037072
415.6692	0.034455
415.8874	0.035911
416.1057	0.036565
416.3240	0.036692
416.5423	0.036354
416.7606	0.035151
416.9790	0.037874
417.1973	0.035299
417.4157	0.035995
417.6341	0.034539
417.8524	0.034750
418.0708	0.034434
418.2893	0.034455
418.5077	0.035721
418.7261	0.037536
418.9446	0.036206
419.1630	0.037261
419.3815	0.037874
419.6000	0.038507
419.8185	0.036291
420.0370	0.037156
420.2555	0.038106
420.4741	0.039667
420.6926	0.041989
420.9112	0.039541
421.1298	0.042284
421.3483	0.042622
421.5669	0.044901
421.7856	0.044099
422.0042	0.044374
422.2228	0.045091
422.4415	0.042073
422.6601	0.045640
422.8788	0.043698
423.0975	0.042453
423.3162	0.042538
423.5349	0.043508
423.7536	0.040448
423.9724	0.041102
424.1911	0.039266
424.4099	0.042327
424.6287	0.041715
424.8475	0.040680
425.0663	0.041503
425.2851	0.041208
425.5039	0.041271
425.7228	0.039013
425.9416	0.040490
426.1605	0.039604
426.3793	0.036628
426.5982	0.038591
426.8171	0.038232
427.0361	0.037219
427.2550	0.042538
427.4739	0.041630
427.6929	0.041904
427.9118	0.040617
428.1308	0.040237
428.3498	0.040490
428.5688	0.039477
428.7878	0.039731
429.0068	0.039414
429.2259	0.040216
429.4449	0.042643
429.6640	0.044775
429.8831	0.047835
430.1022	0.045956
430.3213	0.047856
430.5404	0.047265
430.7595	0.047750
430.9787	0.043340
431.1978	0.046463
431.4170	0.043276
431.6362	0.039541
431.8553	0.039098
432.0745	0.039942
432.2938	0.039752
432.5130	0.038802
432.7322	0.037261
432.9515	0.038486
433.1707	0.039667
433.3900	0.041693
433.6093	0.043635
433.8286	0.047814
434.0479	0.047877
434.2673	0.044965
434.4866	0.045809
434.7059	0.045492
434.9253	0.042031
435.1447	0.042917
435.3641	0.042348
435.5835	0.042094
435.8029	0.042960
436.0223	0.043698
436.2418	0.041757
436.4612	0.043382
436.6807	0.044732
436.9001	0.042854
437.1196	0.044564
437.3391	0.041482
437.5586	0.044205
437.7782	0.042664
437.9977	0.042327
438.2173	0.043635
438.4368	0.047497
438.6564	0.046674
438.8760	0.045598
439.0956	0.044732
439.3152	0.045450
439.5348	0.043762
439.7545	0.045471
439.9741	0.045133
440.1938	0.045091
440.4135	0.043909
440.6331	0.042369
440.8528	0.045218
441.0725	0.048320
441.2923	0.053048
441.5120	0.056382
441.7318	0.054778
441.9515	0.053997
442.1713	0.055369
442.3911	0.054673
442.6109	0.052098
442.8307	0.052583
443.0505	0.053449
443.2703	0.054124
443.4902	0.053491
443.7101	0.055622
443.9299	0.053913
444.1498	0.055770
444.3697	0.053364
444.5896	0.055580
444.8095	0.053702
445.0295	0.054651
445.2494	0.054588
445.4694	0.053934
445.6894	0.052077
445.9093	0.052457
446.1293	0.053533
446.3493	0.052604
446.5694	0.056361
446.7894	0.053259
447.0094	0.053069
447.2295	0.052921
447.4496	0.051908
447.6696	0.051465
447.8897	0.049608
448.1098	0.051423
448.3300	0.050810
448.5501	0.050536
448.7702	0.050431
448.9904	0.052309
449.2106	0.050431
449.4307	0.054166
449.6509	0.051127
449.8711	0.050220
450.0914	0.050621
450.3116	0.053132
450.5318	0.053491
450.7521	0.050114
450.9724	0.050726
451.1926	0.051465
451.4129	0.048890
451.6332	0.050431
451.8535	0.050114
452.0739	0.049228
452.2942	0.048172
452.5146	0.048932
452.7349	0.048827
452.9553	0.047624
453.1757	0.047370
453.3961	0.046125
453.6165	0.048848
453.8369	0.047054
454.0574	0.044901
454.2778	0.045471
454.4983	0.048088
454.7188	0.044521
454.9393	0.045999
455.1597	0.048679
455.3803	0.046294
455.6008	0.048784
455.8213	0.049122
456.0419	0.047349
456.2624	0.045492
456.4830	0.045956
456.7036	0.047771
456.9242	0.045534
457.1448	0.047265
457.3654	0.047729
457.5860	0.046611
457.8067	0.050599
458.0274	0.052414
458.2480	0.052668
458.4687	0.052520
458.6894	0.052013
458.9101	0.051127
459.1308	0.052436
459.3516	0.051718
459.5723	0.049460
459.7931	0.052520
460.0138	0.055559
460.2346	0.052414
460.4554	0.052541
460.6762	0.050325
460.8970	0.050979
461.1178	0.048172
461.3387	0.051866
461.5595	0.052119
461.7804	0.047729
462.0013	0.045218
462.2222	0.044711
462.4431	0.044395
462.6640	0.045408
462.8849	0.044247
463.1059	0.045429
463.3268	0.049270
463.5478	0.048827
463.7687	0.049629
463.9897	0.050072
464.2107	0.054103
464.4317	0.052098
464.6528	0.054103
464.8738	0.054757
465.0948	0.055707
465.3159	0.056044
465.5370	0.059548
465.7581	0.059442
465.9792	0.059083
466.2003	0.055854
466.4214	0.051866
466.6425	0.050705
466.8637	0.050536
467.0848	0.048932
467.3060	0.048721
467.5272	0.048383
467.7484	0.047096
467.9696	0.048531
468.1908	0.050241
468.4120	0.047181
468.6333	0.046632
468.8545	0.043572
469.0758	0.042559
469.2970	0.046294
469.5183	0.042791
469.7396	0.041841
469.9610	0.042495
470.1823	0.042390
470.4036	0.041947
470.6250	0.040659
470.8463	0.040913
471.0677	0.039309
471.2891	0.041250
471.5105	0.040406
471.7319	0.042706
471.9533	0.040913
472.1748	0.040068
472.3962	0.042516
472.6177	0.044247
472.8391	0.044036
473.0606	0.043635
473.2821	0.044817
473.5036	0.047603
473.7251	0.044036
473.9467	0.045577
474.1682	0.045556
474.3898	0.044015
474.6113	0.047476
474.8329	0.045556
475.0545	0.046547
475.2761	0.050642
475.4977	0.051233
475.7193	0.048236
475.9410	0.046020
476.1626	0.046400
476.3843	0.048088
476.6060	0.047096
476.8277	0.048194
477.0494	0.045935
477.2711	0.045408
477.4928	0.044331
477.7145	0.047645
477.9363	0.049629
478.1580	0.048890
478.3798	0.049249
478.6016	0.048531
478.8234	0.046948
479.0452	0.050135
479.2670	0.047961
479.4888	0.049418
479.7107	0.048721
479.9325	0.050642
480.1544	0.051676
480.3763	0.053364
480.5982	0.051528
480.8201	0.051676
481.0420	0.051824
481.2639	0.050895
481.4859	0.054504
481.7078	0.054145
481.9298	0.051908
482.1517	0.053132
482.3737	0.055580
482.5957	0.051802
482.8177	0.049586
483.0398	0.047708
483.2618	0.051887
483.4838	0.050346
483.7059	0.051718
483.9280	0.051148
484.1501	0.053364
484.3721	0.055854
484.5943	0.059083
484.8164	0.059548
485.0385	0.059590
485.2606	0.058387
485.4828	0.080378
485.7050	0.133919
485.9271	0.187588
486.1493	0.197000
486.3715	0.163508
486.5937	0.131028
486.8160	0.114567
487.0382	0.102579
487.2605	0.097409
487.4827	0.083353
487.7050	0.067314
487.9273	0.058872
488.1496	0.057142
488.3719	0.057078
488.5942	0.052921
488.8165	0.054229
489.0389	0.053090
489.2612	0.052625
489.4836	0.053195
489.7060	0.054187
489.9284	0.052731
490.1508	0.052246
490.3732	0.055242
490.5956	0.050431
490.8180	0.052246
491.0405	0.051296
491.2630	0.052731
491.4854	0.049861
491.7079	0.050789
491.9304	0.051908
492.1529	0.050431
492.3755	0.052900
492.5980	0.050747
492.8205	0.052773
493.0431	0.052288
493.2657	0.049143
493.4882	0.053090
493.7108	0.053723
493.9334	0.054187
494.1561	0.052224
494.3787	0.051317
494.6013	0.052119
494.8240	0.049924
495.0466	0.051169
495.2693	0.052815
495.4920	0.050874
495.7147	0.049924
495.9374	0.051106
496.1601	0.054968
496.3829	0.058809
496.6056	0.057374
496.8284	0.056678
497.0511	0.054841
497.2739	0.052520
497.4967	0.051908
497.7195	0.047370
497.9423	0.050346
498.1652	0.048468
498.3880	0.052056
498.6109	0.050367
498.8337	0.051760
499.0566	0.052224
499.2795	0.052182
499.5024	0.053786
499.7253	0.054673
499.9482	0.053892
500.1712	0.055517
500.3941	0.051296
500.6171	0.051781
500.8400	0.049966
501.0630	0.053174
501.2860	0.053048
501.5090	0.055643
501.7320	0.054841
501.9551	0.053153
502.1781	0.055643
502.4012	0.055348
502.6242	0.056298
502.8473	0.056572
503.0704	0.056213
503.2935	0.056192
503.5166	0.055369
503.7397	0.056065
503.9628	0.055960
504.1860	0.051676
504.4092	0.052499
504.6323	0.051591
504.8555	0.051465
505.0787	0.050958
505.3019	0.050789
505.5251	0.050832
505.7483	0.051634
505.9716	0.051528
506.1948	0.050747
506.4181	0.051570
506.6414	0.054905
506.8647	0.053069
507.0880	0.047624
507.3113	0.047708
507.5346	0.045281
507.7579	0.048637
507.9813	0.048595
508.2046	0.049713
508.4280	0.047624
508.6514	0.050156
508.8748	0.048932
509.0982	0.049017
509.3216	0.048996
509.5450	0.047940
509.7685	0.047750
509.9919	0.048996
510.2154	0.048341
510.4388	0.048257
510.6623	0.047645
510.8858	0.049776
511.1093	0.045408
511.3329	0.048046
511.5564	0.049059
511.7799	0.047159
512.0035	0.045344
512.2270	0.044754
512.4506	0.044901
512.6742	0.046674
512.8978	0.044395
513.1214	0.045640
513.3451	0.044754
513.5687	0.045091
513.7923	0.043361
514.0160	0.044606
514.2397	0.043529
514.4634	0.042939
514.6871	0.044163
514.9108	0.042559
515.1345	0.043466
515.3582	0.043044
515.5819	0.041398
515.8057	0.042263
516.0295	0.043973
516.2532	0.042305
516.4770	0.041715
516.7008	0.044500
516.9246	0.042432
517.1485	0.041630
517.3723	0.040575
517.5961	0.040744
517.8200	0.037789
518.0439	0.040343
518.2677	0.038528
518.4916	0.038739
518.7155	0.041503
518.9395	0.039773
519.1634	0.040216
519.3873	0.043677
519.6113	0.041419
519.8352	0.039245
520.0592	0.041229
520.2832	0.036438
520.5072	0.037388
520.7312	0.037240
520.9552	0.039688
521.1792	0.039773
521.4033	0.040343
521.6273	0.037810
521.8514	0.038338
522.0755	0.036481
522.2996	0.037135
522.5237	0.037135
522.7478	0.037536
522.9719	0.034645
523.1960	0.035636
523.4202	0.037599
523.6443	0.038380
523.8685	0.038950
524.0927	0.039752
524.3169	0.039245
524.5411	0.037515
524.7653	0.037451
524.9895	0.036692
525.2138	0.036227
525.4380	0.036396
525.6623	0.034581
525.8865	0.035404
526.1108	0.036143
526.3351	0.036080
526.5594	0.036523
526.7837	0.036417
527.0081	0.036734
527.2324	0.040258
527.4568	0.037494
527.6811	0.037874
527.9055	0.037641
528.1299	0.035594
528.3543	0.036481
528.5787	0.037979
528.8031	0.038042
529.0276	0.041778
529.2520	0.040427
529.4765	0.041525
529.7009	0.038697
529.9254	0.041145
530.1499	0.039182
530.3744	0.038697
530.5989	0.038106
530.8234	0.039667
531.0480	0.037747
531.2725	0.038000
531.4971	0.035257
531.7217	0.036312
531.9462	0.036713
532.1708	0.037451
532.3954	0.040174
532.6200	0.038063
532.8447	0.040554
533.0693	0.039266
533.2940	0.042939
533.5186	0.044711
533.7433	0.046590
533.9680	0.043635
534.1927	0.045450
534.4174	0.045893
534.6421	0.043762
534.8668	0.044775
535.0916	0.048046
535.3163	0.046991
535.5411	0.045091
535.7659	0.045133
535.9907	0.042685
536.2155	0.043150
536.4403	0.042981
536.6651	0.038739
536.8899	0.039878
537.1148	0.039604
537.3396	0.038275
537.5645	0.040659
537.7894	0.041124
538.0143	0.044711
538.2392	0.042896
538.4641	0.043952
538.6890	0.047012
538.9139	0.046315
539.1389	0.046231
539.3638	0.044901
539.5888	0.045260
539.8138	0.042284
540.0388	0.046041
540.2638	0.041398
540.4888	0.043403
540.7138	0.045767
540.9389	0.046083
541.1639	0.047307
541.3890	0.046737
541.6140	0.049819
541.8391	0.045028
542.0642	0.045872
542.2893	0.045429
542.5144	0.048911
542.7396	0.050304
542.9647	0.048088
543.1899	0.047750
543.4150	0.044965
543.6402	0.049270
543.8654	0.052351
544.0906	0.050789
544.3158	0.052478
544.5410	0.050198
544.7662	0.051802
544.9915	0.051570
545.2167	0.052393
545.4420	0.050346
545.6673	0.049586
545.8926	0.045851
546.1179	0.047814
546.3432	0.045872
546.5685	0.045387
546.7938	0.045176
547.0192	0.046463
547.2445	0.050198
547.4699	0.050621
547.6953	0.053638
547.9206	0.052625
548.1460	0.055242
548.3715	0.055475
548.5969	0.056488
548.8223	0.055538
549.0478	0.052752
549.2732	0.050747
549.4987	0.047877
549.7242	0.049038
549.9496	0.045450
550.1751	0.050431
550.4007	0.047856
550.6262	0.047539
550.8517	0.045133
551.0773	0.043656
551.3028	0.044859
551.5284	0.044374
551.7540	0.045640
551.9796	0.049481
552.2052	0.053850
552.4308	0.055981
552.6564	0.053976
552.8820	0.050874
553.1077	0.051739
553.3333	0.053385
553.5590	0.053111
553.7847	0.052436
554.0104	0.053638
554.2361	0.052668
554.4618	0.051064
554.6875	0.046780
554.9132	0.048996
555.1390	0.050810
555.3648	0.050241
555.5905	0.053786
555.8163	0.053976
556.0421	0.053026
556.2679	0.055453
556.4937	0.052604
556.7195	0.050768
556.9454	0.051549
557.1712	0.051591
557.3971	0.050198
557.6230	0.050051
557.8488	0.051929
558.0747	0.052372
558.3006	0.050642
558.5266	0.048869
558.7525	0.045935
558.9784	0.047919
559.2044	0.047096
559.4303	0.047181
559.6563	0.046189
559.8823	0.046611
560.1083	0.050410
560.3343	0.054630
560.5603	0.059484
560.7863	0.058661
561.0124	0.060603
561.2384	0.057712
561.4645	0.059041
561.6905	0.059843
561.9166	0.058936
562.1427	0.058176
562.3688	0.054124
562.5949	0.052794
562.8211	0.054440
563.0472	0.055876
563.2733	0.058324
563.4995	0.058239
563.7257	0.057986
563.9519	0.057184
564.1781	0.059126
564.4043	0.063051
564.6305	0.061320
564.8567	0.062144
565.0829	0.061954
565.3092	0.061679
565.5355	0.061890
565.7617	0.061869
565.9880	0.061616
566.2143	0.062692
566.4406	0.064444
566.6669	0.062376
566.8932	0.065373
567.1196	0.069783
567.3459	0.076115
567.5723	0.079723
567.7987	0.080715
568.0250	0.080504
568.2514	0.082952
568.4778	0.087828
568.7043	0.092555
568.9307	0.099287
569.1571	0.102368
569.3836	0.108615
569.6100	0.120856
569.8365	0.134194
570.0630	0.141496
570.2895	0.145231
570.5160	0.147067
570.7425	0.144999
570.9690	0.154897
571.1956	0.164753
571.4221	0.171506
571.6487	0.172477
571.8752	0.182607
572.1018	0.185372
572.3284	0.184549
572.5550	0.172456
572.7816	0.156100
573.0082	0.156586
573.2349	0.164837
573.4615	0.182797
573.6882	0.199005
573.9149	0.199448
574.1415	0.202867
574.3682	0.214855
574.5949	0.221946
574.8216	0.223275
575.0484	0.221819
575.2751	0.229290
575.5018	0.221819
575.7286	0.211204
575.9554	0.201812
576.1821	0.198900
576.4089	0.205632
576.6357	0.214390
576.8626	0.230029
577.0894	0.229185
577.3162	0.230831
577.5431	0.239652
577.7699	0.270148
577.9968	0.307376
578.2237	0.293848
578.4505	0.276522
578.6774	0.266033
578.9044	0.242839
579.1313	0.229332
579.3582	0.231590
579.5851	0.239694
579.8121	0.244992
580.0391	0.246342
580.2660	0.247229
580.4930	0.248326
580.7200	0.235790
580.9470	0.244042
581.1741	0.280384
581.4011	0.343633
581.6281	0.375227
581.8552	0.374108
582.0822	0.371998
582.3093	0.363535
582.5364	0.332110
582.7635	0.302353
582.9906	0.272807
583.2177	0.259870
583.4449	0.239568
583.6720	0.223423
583.8991	0.216627
584.1263	0.220067
584.3535	0.230092
584.5807	0.229417
584.8079	0.237500
585.0351	0.255607
585.2623	0.267447
585.4895	0.269768
585.7167	0.267510
585.9440	0.259322
586.1713	0.244401
586.3985	0.232392
586.6258	0.216796
586.8531	0.228572
587.0804	0.240729
587.3077	0.255164
587.5350	0.255670
587.7624	0.259955
587.9897	0.241995
588.2171	0.227475
588.4445	0.221692
588.6718	0.224119
588.8992	0.208544
589.1266	0.193771
589.3540	0.183810
589.5815	0.183219
589.8089	0.180476
590.0363	0.177204
590.2638	0.169670
590.4913	0.163972
590.7187	0.163402
590.9462	0.153061
591.1737	0.146350
591.4012	0.142741
591.6288	0.142361
591.8563	0.144746
592.0838	0.140947
592.3114	0.144936
592.5389	0.167201
592.7665	0.197169
592.9941	0.211394
593.2217	0.220532
593.4493	0.220468
593.6769	0.218717
593.9046	0.208967
594.1322	0.198330
594.3598	0.181615
594.5875	0.188200
594.8152	0.195396
595.0429	0.211900
595.2705	0.208312
595.4983	0.204872
595.7260	0.194215
595.9537	0.184422
596.1814	0.176487
596.4092	0.162368
596.6369	0.154813
596.8647	0.152618
597.0925	0.154348
597.3203	0.158211
597.5481	0.160026
597.7759	0.158443
598.0037	0.156037
598.2315	0.147426
598.4594	0.151816
598.6872	0.168404
598.9151	0.187229
599.1430	0.197338
599.3709	0.193244
599.5988	0.189719
599.8267	0.189614
600.0546	0.191872
600.2825	0.197000
600.5105	0.194067
600.7384	0.196008
600.9664	0.197887
601.1944	0.193497
601.4223	0.192611
601.6503	0.183810
601.8783	0.178555
602.1064	0.173195
602.3344	0.175242
602.5624	0.176339
602.7905	0.179631
603.0185	0.185055
603.2466	0.193982
603.4747	0.197169
603.7028	0.199554
603.9309	0.189065
604.1590	0.181193
604.3871	0.176782
604.6152	0.167074
604.8434	0.164056
605.0715	0.159603
605.2997	0.161397
605.5279	0.169417
605.7561	0.176318
605.9843	0.179779
606.2125	0.179906
606.4407	0.171506
606.6689	0.161714
606.8972	0.162030
607.1254	0.162410
607.3537	0.163930
607.5819	0.165766
607.8102	0.164436
608.0385	0.160806
608.2668	0.155425
608.4951	0.153124
608.7235	0.149072
608.9518	0.145358
609.1801	0.144387
609.4085	0.138035
609.6369	0.136832
609.8653	0.140525
610.0936	0.156332
610.3220	0.154095
610.5505	0.149917
610.7789	0.143606
611.0073	0.144451
611.2357	0.141939
611.4642	0.143142
611.6927	0.141791
611.9211	0.140842
612.1496	0.134004
612.3781	0.131387
612.6066	0.132126
612.8351	0.132505
613.0637	0.130817
613.2922	0.132316
613.5208	0.129466
613.7493	0.130501
613.9779	0.131640
614.2065	0.129466
614.4351	0.129973
614.6637	0.129593
614.8923	0.129931
615.1209	0.127546
615.3495	0.132189
615.5782	0.137085
615.8068	0.132337
616.0355	0.128960
616.2642	0.120835
616.4929	0.116677
616.7216	0.113786
616.9503	0.112836
617.1790	0.111654
617.4077	0.108636
617.6365	0.111443
617.8652	0.110958
618.0940	0.110937
618.3227	0.111063
618.5515	0.102200
618.7803	0.098126
619.0091	0.093104
619.2379	0.091394
619.4667	0.091563
619.6956	0.093631
619.9244	0.093083
620.1533	0.096712
620.3821	0.099836
620.6110	0.095488
620.8399	0.090508
621.0688	0.082066
621.2977	0.075207
621.5266	0.077191
621.7556	0.078985
621.9845	0.084113
622.2135	0.084324
622.4424	0.083290
622.6714	0.085548
622.9004	0.087279
623.1294	0.089917
623.3584	0.092766
623.5874	0.090128
623.8164	0.088440
624.0454	0.088841
624.2745	0.087089
624.5035	0.091289
624.7326	0.090740
624.9617	0.090719
625.1908	0.087342
625.4199	0.083142
625.6490	0.082551
625.8781	0.080251
626.1072	0.077719
626.3364	0.077254
626.5655	0.072696
626.7947	0.070459
627.0238	0.071725
627.2530	0.071619
627.4822	0.070459
627.7114	0.073730
627.9406	0.067821
628.1698	0.064233
628.3991	0.063684
628.6283	0.059991
628.8576	0.059358
629.0868	0.058387
629.3161	0.060392
629.5454	0.061911
629.7747	0.062566
630.0040	0.062988
630.2333	0.061236
630.4626	0.058577
630.6920	0.058577
630.9213	0.056699
631.1507	0.057479
631.3801	0.053765
631.6094	0.055664
631.8388	0.056087
632.0682	0.054462
632.2976	0.049966
632.5271	0.051971
632.7565	0.046632
632.9859	0.045640
633.2154	0.045133
633.4448	0.043677
633.6743	0.046737
633.9038	0.043213
634.1333	0.042875
634.3628	0.043023
634.5923	0.044838
634.8218	0.042559
635.0514	0.041989
635.2809	0.041250
635.5105	0.041947
635.7400	0.041292
635.9696	0.042981
636.1992	0.043698
636.4288	0.046442
636.6584	0.045556
636.8880	0.045070
637.1177	0.045556
637.3473	0.044416
637.5770	0.040343
637.8066	0.039878
638.0363	0.040575
638.2660	0.041018
638.4957	0.043867
638.7254	0.043994
638.9551	0.041187
639.1848	0.041166
639.4145	0.040469
639.6443	0.039819
639.8740	0.036466
640.1038	0.035359
640.3336	0.037493
640.5633	0.038263
640.7931	0.038076
641.0229	0.035082
641.2528	0.035312
641.4826	0.033921
641.7124	0.034001
641.9423	0.033418
642.1721	0.031482
642.4020	0.031527
642.6319	0.030535
642.8617	0.029084
643.0916	0.030174
643.3216	0.030213
643.5515	0.031830
643.7814	0.030519
644.0113	0.028355
644.2413	0.027108
644.4712	0.027821
644.7012	0.027036
644.9312	0.028996
645.1612	0.028358
645.3912	0.029345
645.6212	0.027462
645.8512	0.027758
646.0812	0.026305
646.3113	0.025263
646.5413	0.025439
646.7714	0.024986
647.0015	0.023199
647.2316	0.021616
647.4616	0.025975
647.6918	0.027047
647.9219	0.027550
648.1520	0.029606
648.3821	0.031479
648.6123	0.029791
648.8424	0.034308
649.0726	0.032032
649.3028	0.035486
649.5329	0.032919
649.7631	0.032269
649.9933	0.033256
650.2236	0.029022
650.4538	0.029039
650.6840	0.028188
650.9143	0.026290
651.1445	0.029525
651.3748	0.028989
651.6051	0.029661
651.8354	0.032412
652.0657	0.031273
652.2960	0.032814
652.5263	0.032111
652.7566	0.030870
652.9870	0.032738
653.2173	0.030773
653.4477	0.030349
653.6780	0.031782
653.9084	0.031848
654.1388	0.033617
654.3692	0.032936
654.5996	0.038056
654.8300	0.043190
655.0605	0.062185
655.2909	0.174067
655.5213	0.511307
655.7518	0.958900
655.9823	1.000000
656.2128	1.000000
656.4433	1.000000
656.6738	1.000000
656.9043	1.000000
657.1348	0.869793
657.3653	0.703811
657.5959	0.613564
657.8264	0.529456
658.0570	0.484360
658.2875	0.436870
658.5181	0.401694
658.7487	0.371300
658.9793	0.359784
659.2099	0.309382
659.4406	0.232342
659.6712	0.148312
659.9018	0.086961
660.1325	0.056242
660.3632	0.036011
660.5938	0.030259
660.8245	0.026132
661.0552	0.023602
661.2859	0.025287
661.5166	0.022142
661.7474	0.021165
661.9781	0.023063
662.2088	0.022482
662.4396	0.023526
662.6704	0.021856
662.9011	0.023722
663.1319	0.022342
663.3627	0.020740
663.5935	0.020943
663.8243	0.020230
664.0552	0.022747
664.2860	0.021618
664.5168	0.021817
664.7477	0.021020
664.9786	0.023140
665.2094	0.023496
665.4403	0.023197
665.6712	0.023740
665.9021	0.023299
666.1330	0.023925
666.3640	0.022382
666.5949	0.022359
666.8259	0.021273
667.0568	0.019944
667.2878	0.020823
667.5188	0.022066
667.7497	0.021727
667.9807	0.021677
668.2117	0.020654
668.4428	0.021940
668.6738	0.020484
668.9048	0.020631
669.1359	0.022594
669.3669	0.022235
669.5980	0.021159
669.8291	0.022130
670.0602	0.022974
670.2913	0.021560
670.5224	0.022425
670.7535	0.023227
670.9846	0.020167
671.2157	0.022868
671.4469	0.027089
671.6781	0.029115
671.9092	0.031795
672.1404	0.032218
672.3716	0.036016
672.6028	0.035088
672.8340	0.033273
673.0652	0.032766
673.2964	0.032851
673.5277	0.032154
673.7589	0.028841
673.9902	0.029200
674.2214	0.029200
674.4527	0.028250
674.6840	0.027005
674.9153	0.027174
675.1466	0.027047
675.3779	0.027701
675.6093	0.026857
675.8406	0.024852
676.0719	0.027279
676.3033	0.024726
676.5347	0.025992
676.7661	0.023037
676.9974	0.022847
677.2288	0.024367
677.4602	0.025274
677.6917	0.025760
677.9231	0.027553
678.1545	0.029094
678.3860	0.027469
678.6174	0.029980
678.8489	0.031690
679.0804	0.031648
679.3119	0.030994
679.5434	0.032344
679.7749	0.033969
680.0064	0.039013
680.2379	0.033758
680.4694	0.034539
680.7010	0.033020
680.9325	0.032492
681.1641	0.033737
681.3957	0.036565
681.6273	0.036333
681.8589	0.036460
682.0905	0.032914
682.3221	0.032534
682.5537	0.032893
682.7854	0.030909
683.0170	0.028925
683.2487	0.031711
683.4803	0.029791
683.7120	0.030761
683.9437	0.031500
684.1754	0.033674
684.4071	0.036438
684.6388	0.038296
684.8705	0.036143
685.1023	0.042200
685.3340	0.044057
685.5658	0.045703
685.7975	0.045492
686.0293	0.043698
686.2611	0.043403
686.4929	0.044416
686.7247	0.043424
686.9565	0.045788
687.1883	0.042917
687.4202	0.043086
687.6520	0.043297
687.8838	0.040490
688.1157	0.040279
688.3476	0.037198
688.5795	0.038528
688.8114	0.037536
689.0433	0.036122
689.2752	0.037536
689.5071	0.038781
689.7390	0.037831
689.9710	0.035151
690.2029	0.035468
690.4349	0.032154
690.6669	0.034792
690.8988	0.034011
691.1308	0.037240
691.3628	0.037831
691.5948	0.039731
691.8269	0.037557
692.0589	0.039098
692.2909	0.037747
692.5230	0.036544
692.7550	0.039393
692.9871	0.036460
693.2192	0.039604
693.4513	0.038633
693.6834	0.039182
693.9155	0.036544
694.1476	0.035953
694.3797	0.032429
694.6119	0.032513
694.8440	0.033610
695.0762	0.034856
695.3083	0.034075
695.5405	0.032935
695.7727	0.029938
696.0049	0.029516
696.2371	0.028524
696.4693	0.032935
696.7016	0.036164
696.9338	0.038971
697.1660	0.043150
697.3983	0.039773
697.6306	0.036882
697.8628	0.038443
698.0951	0.038317
698.3274	0.040807
698.5597	0.037219
698.7920	0.036755
699.0243	0.036037
699.2567	0.035700
699.4890	0.037008
699.7214	0.034180
699.9537	0.030318
700.1861	0.031542
700.4185	0.030571
700.6509	0.033231
700.8833	0.029706
701.1157	0.029516
701.3481	0.027807
701.5806	0.028609
701.8130	0.029769
702.0454	0.026836
702.2779	0.030782
702.5104	0.030086
702.7429	0.031943
702.9753	0.026815
703.2078	0.027195
703.4403	0.028292
703.6729	0.028166
703.9054	0.030044
704.1379	0.028567
704.3705	0.029052
704.6030	0.026646
704.8356	0.026266
705.0682	0.023185
705.3008	0.023818
705.5334	0.024177
705.7660	0.025169
705.9986	0.023396
706.2312	0.028208
706.4638	0.029769
706.6965	0.033800
706.9291	0.036291
707.1618	0.038127
707.3945	0.037283
707.6272	0.038992
707.8599	0.038802
708.0926	0.038317
708.3253	0.037135
708.5580	0.037177
708.7907	0.037451
709.0235	0.033252
709.2562	0.033526
709.4890	0.033463
709.7217	0.031542
709.9545	0.033948
710.1873	0.033505
710.4201	0.032766
710.6529	0.035130
710.8857	0.035447
711.1186	0.033020
711.3514	0.032407
711.5842	0.030466
711.8171	0.031036
712.0500	0.028672
712.2828	0.027849
712.5157	0.029347
712.7486	0.029727
712.9815	0.029917
713.2144	0.030550
713.4474	0.031500
713.6803	0.032893
713.9132	0.031226
714.1462	0.035510
714.3791	0.034666
714.6121	0.036333
714.8451	0.035172
715.0781	0.035299
715.3111	0.036101
715.5441	0.034011
715.7771	0.033062
716.0102	0.032091
716.2432	0.030445
716.4762	0.030255
716.7093	0.027575
716.9424	0.027891
717.1754	0.027068
717.4085	0.027321
717.6416	0.027448
717.8747	0.028039
718.1078	0.029221
718.3410	0.030930
718.5741	0.028208
718.8072	0.027342
719.0404	0.029052
719.2736	0.030698
719.5067	0.028925
719.7399	0.029812
719.9731	0.027659
720.2063	0.027364
720.4395	0.028081
720.6727	0.030065
720.9060	0.027765
721.1392	0.029769
721.3725	0.029432
721.6057	0.029727
721.8390	0.029727
722.0723	0.031057
722.3055	0.030170
722.5388	0.027701
722.7721	0.026161
723.0055	0.028714
723.2388	0.026583
723.4721	0.028123
723.7055	0.028377
723.9388	0.027997
724.1722	0.028524
724.4056	0.027237
724.6389	0.026984
724.8723	0.028102
725.1057	0.030466
725.3391	0.032766
725.5726	0.031922
725.8060	0.034455
726.0394	0.036818
726.2729	0.035594
726.5063	0.032661
726.7398	0.032956
726.9733	0.031057
727.2068	0.032893
727.4403	0.030170
727.6738	0.032682
727.9073	0.032534
728.1408	0.032787
728.3743	0.034265
728.6079	0.032640
728.8414	0.033167
729.0750	0.032914
729.3086	0.035447
729.5421	0.035911
729.7757	0.036818
730.0093	0.034412
730.2429	0.036882
730.4766	0.037662
730.7102	0.038718
730.9438	0.041841
731.1775	0.042812
731.4111	0.044458
731.6448	0.042348
731.8785	0.042770
732.1122	0.040216
732.3458	0.041651
732.5795	0.041736
732.8133	0.043508
733.0470	0.043487
733.2807	0.045344
733.5145	0.043234
733.7482	0.045640
733.9820	0.047624
734.2157	0.051338
734.4495	0.052246
734.6833	0.050114
734.9171	0.048552
735.1509	0.048341
735.3847	0.046125
735.6185	0.047370
735.8524	0.048616
736.0862	0.047666
736.3201	0.049291
736.5539	0.047518
736.7878	0.047223
737.0217	0.048784
737.2556	0.048426
737.4895	0.046948
737.7234	0.046864
737.9573	0.043403
738.1912	0.041841
738.4252	0.041081
738.6591	0.040005
738.8931	0.040891
739.1271	0.045260
739.3610	0.045851
739.5950	0.045387
739.8290	0.045344
740.0630	0.045218
740.2970	0.041187
740.5310	0.039203
740.7651	0.038760
740.9991	0.037810
741.2332	0.036375
741.4672	0.034940
741.7013	0.032597
741.9354	0.033990
742.1695	0.036776
742.4036	0.034391
742.6377	0.035214
742.8718	0.035911
743.1059	0.034159
743.3400	0.030107
743.5742	0.031141
743.8083	0.029685
744.0425	0.029643
744.2767	0.031162
744.5108	0.028334
744.7450	0.029368
744.9792	0.029558
745.2134	0.028672
745.4477	0.028609
745.6819	0.027364
745.9161	0.027026
746.1504	0.027321
746.3846	0.027617
746.6189	0.028904
746.8532	0.027469
747.0874	0.030192
747.3217	0.031394
747.5560	0.033167
747.7903	0.030698
748.0247	0.030192
748.2590	0.028524
748.4933	0.030234
748.7277	0.026667
748.9620	0.030107
749.1964	0.029854
749.4308	0.032196
749.6652	0.034391
749.8995	0.037283
750.1339	0.038908
750.3684	0.038127
750.6028	0.040870
750.8372	0.039878
751.0717	0.037114
751.3061	0.036312
751.5406	0.038507
751.7750	0.040174
752.0095	0.040891
752.2440	0.039794
752.4785	0.036059
752.7130	0.035151
752.9475	0.037304
753.1820	0.033758
753.4166	0.039520
753.6511	0.041799
753.8856	0.040448
754.1202	0.042348
754.3548	0.039710
754.5894	0.038929
754.8239	0.039583
755.0585	0.038422
755.2931	0.038887
755.5278	0.041968
755.7624	0.041377
755.9970	0.043255
756.2317	0.043719
756.4663	0.048088
756.7010	0.050494
756.9356	0.051676
757.1703	0.054947
757.4050	0.054293
757.6397	0.059738
757.8744	0.059168
758.1091	0.058176
758.3438	0.056192
758.5786	0.053786
758.8133	0.052900
759.0481	0.052963
759.2828	0.056678
759.5176	0.057944
759.7524	0.061595
759.9872	0.059928
760.2220	0.062270
760.4568	0.062249
760.6916	0.062439
760.9264	0.061320
761.1613	0.061342
761.3961	0.060096
761.6310	0.054799
761.8658	0.052963
762.1007	0.048721
762.3356	0.049861
762.5705	0.049185
762.8054	0.048827
763.0403	0.048911
763.2752	0.048827
763.5101	0.050135
763.7450	0.049797
763.9800	0.050198
764.2149	0.052731
764.4499	0.052773
764.6849	0.058450
764.9198	0.057838
765.1548	0.058746
765.3898	0.057543
765.6248	0.052689
765.8599	0.053512
766.0949	0.050030
766.3299	0.048637
766.5650	0.042896
766.8000	0.041461
767.0351	0.039477
767.2701	0.040364
767.5052	0.037409
767.7403	0.038549
767.9754	0.041060
768.2105	0.042643
768.4456	0.043846
768.6808	0.048299
768.9159	0.049122
769.1510	0.047539
769.3862	0.043804
769.6214	0.045070
769.8565	0.045999
770.0917	0.042833
770.3269	0.045556
770.5621	0.046780
770.7973	0.047518
771.0325	0.047771
771.2677	0.048911
771.5030	0.046505
771.7382	0.045176
771.9735	0.041187
772.2087	0.042031
772.4440	0.041482
772.6793	0.039288
772.9146	0.039942
773.1499	0.038296
773.3852	0.036861
773.6205	0.039372
773.8558	0.037958
774.0911	0.035278
774.3265	0.033146
774.5618	0.034518
774.7972	0.031162
775.0326	0.034391
775.2679	0.029390
775.5033	0.029685
775.7387	0.028060
775.9741	0.028461
776.2095	0.025506
776.4450	0.024599
776.6804	0.027068
776.9158	0.025380
777.1513	0.025844
777.3868	0.022573
777.6222	0.022214
777.8577	0.024958
778.0932	0.024177
778.3287	0.026245
778.5642	0.026857
778.7997	0.027722
779.0352	0.028925
779.2707	0.031795
779.5063	0.031458
779.7418	0.031563
779.9774	0.030508
780.2130	0.030339
780.4485	0.027427
780.6841	0.028778
780.9197	0.031120
781.1553	0.031500
781.3909	0.034581
781.6265	0.038042
781.8622	0.036080
782.0978	0.035046
782.3335	0.034307
782.5691	0.035594
782.8048	0.034307
783.0405	0.032386
783.2761	0.032851
783.5118	0.035425
783.7475	0.034434
783.9832	0.034750
784.2190	0.032239
784.4547	0.030318
784.6904	0.029558
784.9262	0.028883
785.1619	0.028398
785.3977	0.029833
785.6335	0.029052
785.8692	0.030318
786.1050	0.029368
786.3408	0.029284
786.5766	0.026562
786.8124	0.026477
787.0483	0.027490
787.2841	0.027068
787.5199	0.028967
787.7558	0.028081
787.9917	0.029854
788.2275	0.028967
788.4634	0.031205
788.6993	0.031352
788.9352	0.032851
789.1711	0.032724
789.4070	0.032028
789.6429	0.029959
789.8789	0.029558
790.1148	0.024578
790.3507	0.026667
790.5867	0.026393
790.8227	0.023902
791.0586	0.024472
791.2946	0.025084
791.5306	0.025021
791.7666	0.024367
792.0026	0.024240
792.2387	0.023755
792.4747	0.022784
792.7107	0.022974
792.9468	0.022531
793.1828	0.021834
793.4189	0.021982
793.6550	0.023396
793.8910	0.027891
794.1271	0.027279
794.3632	0.030044
794.5993	0.030888
794.8355	0.031563
795.0716	0.032956
795.3077	0.032555
795.5439	0.033315
795.7800	0.030846
796.0162	0.027659
796.2523	0.025950
796.4885	0.023016
796.7247	0.021876
796.9609	0.020885
797.1971	0.021940
797.4333	0.021771
797.6695	0.024388
797.9058	0.025802
798.1420	0.023248
798.3783	0.022636
798.6145	0.022763
798.8508	0.021686
799.0871	0.024240
799.3233	0.021834
799.5596	0.023122
799.7959	0.020272
800.0322	0.020019
800.2686	0.019091
800.5049	0.019365
800.7412	0.019027
800.9776	0.018246
801.2139	0.019154
801.4503	0.017909
801.6867	0.017318
801.9230	0.016516
802.1594	0.016727
802.3958	0.017212
802.6322	0.015672
802.8686	0.017086
803.1051	0.016896
803.3415	0.016938
803.5779	0.019302
803.8144	0.015841
804.0508	0.016664
804.2873	0.017930
804.5238	0.017381
804.7603	0.017423
804.9968	0.016516
805.2333	0.016347
805.4698	0.019365
805.7063	0.017508
805.9428	0.018479
806.1794	0.022130
806.4159	0.024873
806.6525	0.023734
806.8890	0.024198
807.1256	0.023691
807.3622	0.023881
807.5988	0.022193
807.8354	0.022847
808.0720	0.021454
808.3086	0.023058
808.5452	0.024915
808.7818	0.023058
809.0185	0.021834
809.2551	0.023459
809.4918	0.020948
809.7284	0.020462
809.9651	0.019091
810.2018	0.018436
810.4385	0.021117
810.6752	0.019618
810.9119	0.019386
811.1486	0.019829
811.3853	0.017803
811.6221	0.020251
811.8588	0.016495
812.0956	0.016790
812.3323	0.016009
812.5691	0.015587
812.8059	0.012295
813.0427	0.014384
813.2795	0.014954
813.5163	0.016009
813.7531	0.017824
813.9899	0.017550
814.2267	0.018880
814.4636	0.019070
814.7004	0.018563
814.9373	0.018035
815.1742	0.015545
815.4110	0.014659
815.6479	0.016094
815.8848	0.015482
816.1217	0.014258
816.3586	0.013561
816.5955	0.016157
816.8324	0.014047
817.0694	0.013920
817.3063	0.013519
817.5433	0.014785
817.7802	0.014427
818.0172	0.014110
818.2542	0.015229
818.4912	0.012970
818.7282	0.012823
818.9652	0.012358
819.2022	0.013329
819.4392	0.013540
819.6762	0.012569
819.9133	0.013224
820.1503	0.012000
820.3874	0.012633
820.6244	0.013329
820.8615	0.015313
821.0986	0.016073
821.3357	0.014680
821.5727	0.014490
821.8099	0.016178
822.0470	0.013793
822.2841	0.013519
822.5212	0.012443
822.7584	0.013456
822.9955	0.010332
823.2327	0.010987
823.4698	0.011936
823.7070	0.011831
823.9442	0.010164
824.1814	0.010375
824.4186	0.011155
824.6558	0.012591
824.8930	0.011219
825.1302	0.010923
825.3675	0.013097
825.6047	0.013857
825.8419	0.012485
826.0792	0.013983
826.3165	0.010691
826.5537	0.011303
826.7910	0.012696
827.0283	0.014996
827.2656	0.014237
827.5029	0.014258
827.7402	0.012316
827.9776	0.013519
828.2149	0.012105
828.4522	0.011789
828.6896	0.012485
828.9270	0.011683
829.1643	0.013625
829.4017	0.011725
829.6391	0.012823
829.8765	0.012569
830.1139	0.010353
830.3513	0.012084
830.5887	0.009889
830.8261	0.010100
831.0636	0.010185
831.3010	0.008939
831.5385	0.009340
831.7759	0.007525
832.0134	0.007568
832.2509	0.008201
832.4884	0.007589
832.7259	0.009066
832.9634	0.009362
833.2009	0.010164
833.4384	0.009889
833.6759	0.008581
833.9135	0.007525
834.1510	0.010079
834.3886	0.009974
834.6261	0.011071
834.8637	0.010923
835.1013	0.010712
835.3389	0.009193
835.5765	0.009952
835.8141	0.008538
836.0517	0.010100
836.2893	0.008834
836.5269	0.008897
836.7646	0.007399
837.0022	0.008370
837.2399	0.007631
837.4775	0.007568
837.7152	0.009172
837.9529	0.007673
838.1906	0.006956
838.4283	0.005858
838.6660	0.005837
838.9037	0.007821
839.1414	0.007568
839.3791	0.005605
839.6169	0.004866
839.8546	0.007167
840.0924	0.008095
840.3302	0.008813
840.5679	0.008349
840.8057	0.007863
841.0435	0.007314
841.2813	0.007821
841.5191	0.004930
841.7569	0.007483
841.9947	0.006090
842.2326	0.006238
842.4704	0.005732
842.7082	0.005394
842.9461	0.005035
843.1840	0.004170
843.4218	0.003748
843.6597	0.005542
843.8976	0.005310
844.1355	0.005626
844.3734	0.005499
844.6113	0.005457
844.8492	0.002861
845.0872	0.005879
845.3251	0.007040
845.5631	0.004993
845.8010	0.006196
846.0390	0.005774
846.2770	0.006913
846.5149	0.004529
846.7529	0.005732
846.9909	0.005267
847.2289	0.004866
847.4669	0.007082
847.7050	0.005521
847.9430	0.004613
848.1810	0.004655
848.4191	0.005943
848.6571	0.002819
848.8952	0.004866
849.1333	0.004550
849.3713	0.006175
849.6094	0.005056
849.8475	0.006428
850.0856	0.005098
850.3237	0.003790
850.5619	0.004318
850.8000	0.005310
851.0381	0.004951
851.2763	0.004043
851.5144	0.004465
851.7526	0.005478
851.9908	0.006196
852.2289	0.004529
852.4671	0.008475
852.7053	0.008982
852.9435	0.009741
853.1817	0.013034
853.4200	0.013498
853.6582	0.014891
853.8964	0.013983
854.1347	0.013308
854.3729	0.015461
854.6112	0.013350
854.8495	0.014553
855.0877	0.014722
855.3260	0.012569
855.5643	0.013604
855.8026	0.012316
856.0409	0.012105
856.2792	0.012886
856.5176	0.013519
856.7559	0.013076
856.9942	0.014173
857.2326	0.010607
857.4710	0.011092
857.7093	0.009573
857.9477	0.010142
858.1861	0.009952
858.4245	0.009256
858.6629	0.008939
858.9013	0.011873
859.1397	0.008074
859.3781	0.008095
859.6166	0.010206
859.8550	0.008433
860.0935	0.006639
860.3319	0.006344
860.5704	0.007504
860.8089	0.008538
861.0473	0.005542
861.2858	0.005373
861.5243	0.006512
861.7628	0.007779
862.0013	0.005710
862.2399	0.006048
862.4784	0.006956
862.7169	0.006238
862.9555	0.003917
863.1940	0.007272
863.4326	0.006681
863.6712	0.007399
863.9098	0.007146
864.1483	0.006491
864.3869	0.005436
864.6255	0.005141
864.8642	0.007146
865.1028	0.005668
865.3414	0.006639
865.5800	0.004634
865.8187	0.004212
866.0573	0.004085
866.2960	0.003600
866.5347	0.005077
866.7733	0.005499
867.0120	0.005373
867.2507	0.005014
867.4894	0.006069
867.7281	0.005035
867.9669	0.006323
868.2056	0.005225
868.4443	0.005183
868.6831	0.006048
868.9218	0.004824
869.1606	0.004486
869.3993	0.006956
869.6381	0.004676
869.8769	0.006006
870.1157	0.003051
870.3545	0.004085
870.5933	0.003769
870.8321	0.007420
871.0709	0.005943
871.3097	0.006238
871.5486	0.004887
871.7874	0.004592
872.0263	0.007188
872.2651	0.004824
872.5040	0.004275
872.7429	0.004064
872.9818	0.004782
873.2207	0.005668
873.4596	0.004550
873.6985	0.006238
873.9374	0.004719
874.1763	0.004423
874.4153	0.005542
874.6542	0.005943
874.8932	0.003220
875.1321	0.005056
875.3711	0.005900
875.6101	0.004318
875.8491	0.006344
876.0880	0.006639
876.3270	0.004233
876.5661	0.004212
876.8051	0.005668
877.0441	0.004107
877.2831	0.005436
877.5222	0.006154
877.7612	0.007652
878.0003	0.007040
878.2393	0.006998
878.4784	0.006407
878.7175	0.005331
878.9566	0.006470
879.1957	0.006386
879.4348	0.008074
879.6739	0.007082
879.9130	0.007800
880.1521	0.008665
880.3913	0.007905
880.6304	0.008813
880.8696	0.008011
881.1087	0.008918
881.3479	0.007652
881.5871	0.007652
881.8262	0.006555
882.0654	0.005943
882.3046	0.004740
882.5438	0.006639
882.7831	0.006449
883.0223	0.007019
883.2615	0.005922
883.5007	0.006449
883.7400	0.006977
883.9792	0.006344
884.2185	0.006639
884.4578	0.007969
884.6971	0.006133
884.9363	0.008074
885.1756	0.006386
885.4149	0.006133
885.6542	0.007926
885.8936	0.006745
886.1329	0.006196
886.3722	0.006154
886.6116	0.004909
886.8509	0.005900
887.0903	0.005457
887.3296	0.006238
887.5690	0.005499
887.8084	0.005900
888.0478	0.004360
888.2872	0.006407
888.5266	0.006618
888.7660	0.003769
889.0054	0.003579
889.2448	0.006048
889.4843	0.005077
889.7237	0.005584
889.9632	0.004972
890.2026	0.004634
890.4421	0.004318
890.6816	0.004951
890.9211	0.004064
891.1606	0.004719
891.4001	0.005288
891.6396	0.004296
891.8791	0.004887
892.1186	0.005141
892.3581	0.005668
892.5977	0.006512
892.8372	0.005267
893.0768	0.005753
893.3163	0.006133
893.5559	0.005647
893.7955	0.003959
894.0351	0.004022
894.2747	0.003790
894.5143	0.005246
894.7539	0.003684
894.9935	0.004022
895.2331	0.004339
895.4727	0.004318
895.7124	0.003980
895.9520	0.003811
896.1917	0.006344
896.4314	0.005183
896.6710	0.004972
896.9107	0.003199
897.1504	0.006660
897.3901	0.005288
897.6298	0.004824
897.8695	0.004064
898.1092	0.004866
898.3489	0.005098
898.5887	0.003811
898.8284	0.004402
899.0682	0.003537
899.3079	0.004296
899.5477	0.004191
899.7875	0.005964
900.0272	0.004655
900.2670	0.004339
900.5068	0.004381
900.7466	0.005098
900.9864	0.003537
901.2263	0.005310
901.4661	0.004719
901.7059	0.005753
901.9458	0.005035
902.1856	0.004592
902.4255	0.004719
902.6654	0.003727
902.9052	0.003030
903.1451	0.006829
903.3850	0.004697
903.6249	0.004128
903.8648	0.005668
904.1047	0.004761
904.3446	0.005310
904.5846	0.006534
904.8245	0.004318
905.0644	0.005710
905.3044	0.002439
905.5444	0.005985
905.7843	0.004170
906.0243	0.004887
906.2643	0.003938
906.5043	0.004339
906.7443	0.005436
906.9843	0.004465
907.2243	0.003896
907.4643	0.003347
907.7043	0.004381
907.9444	0.004697
908.1844	0.003790
908.4245	0.003917
908.6645	0.003980
908.9046	0.003368
909.1447	0.005647
909.3847	0.002650
909.6248	0.002925
909.8649	0.003115
910.1050	0.002735
910.3452	0.004149
910.5853	0.002967
910.8254	0.004655
911.0655	0.003030
911.3057	0.002840
911.5458	0.003283
911.7860	0.004339
912.0262	0.003537
912.2663	0.003896
912.5065	0.003558
912.7467	0.003938
912.9869	0.002946
913.2271	0.003832
913.4673	0.002587
913.7075	0.003748
913.9478	0.002819
914.1880	0.004465
914.4283	0.002144
914.6685	0.004634
914.9088	0.003094
915.1490	0.002693
915.3893	0.003642
915.6296	0.003051
915.8699	0.003579
916.1102	0.004191
916.3505	0.002777
916.5908	0.002460
916.8311	0.003283
917.0714	0.003959
917.3118	0.004022
917.5521	0.003115
917.7925	0.004444
918.0328	0.004212
918.2732	0.004761
918.5136	0.003642
918.7539	0.005141
918.9943	0.004064
919.2347	0.003389
919.4751	0.004866
919.7155	0.002566
919.9560	0.003283
920.1964	0.003896
920.4368	0.004697
920.6773	0.003938
920.9177	0.004149
921.1582	0.003769
921.3986	0.001743
921.6391	0.002798
921.8796	0.003600
922.1201	0.001405
922.3606	0.002988
922.6011	0.002503
922.8416	0.003621
923.0821	0.003452
923.3226	0.002292
923.5631	0.003769
923.8037	0.004043
924.0442	0.004360
924.2848	0.002503
924.5254	0.001891
924.7659	0.002292
925.0065	0.001912
925.2471	0.003241
925.4877	0.001785
925.7283	0.002650
925.9689	0.002439
926.2095	0.003241
926.4501	0.003199
926.6908	0.003051
926.9314	0.002207
927.1720	0.002144
927.4127	0.004697
927.6533	0.002798
927.8940	0.003178
928.1347	0.002292
928.3754	0.002693
928.6161	0.002840
928.8568	0.002270
929.0975	0.001785
929.3382	0.003917
929.5789	0.002693
929.8196	0.001616
930.0604	0.001658
930.3011	0.002313
930.5419	0.004381
930.7826	0.001490
931.0234	0.002144
931.2642	0.001975
931.5049	0.002566
931.7457	0.001933
931.9865	0.002081
932.2273	0.003241
932.4681	0.003410
932.7089	0.001764
932.9498	0.002123
933.1906	0.000899
933.4314	0.002460
933.6723	0.001215
933.9131	0.003326
934.1540	0.001616
934.3949	0.002861
934.6358	0.002693
934.8766	0.003473
935.1175	0.000941
935.3584	0.002988
935.5993	0.001321
935.8403	0.002334
936.0812	0.002165
936.3221	0.002608
936.5630	0.001511
936.8040	0.001173
937.0449	0.002545
937.2859	0.000477
937.5269	0.000941
937.7678	0.002503
938.0088	0.002038
938.2498	0.000814
938.4908	0.002270
938.7318	0.001173
938.9728	0.002038
939.2138	0.001447
939.4549	0.001405
939.6959	0.002334
939.9369	0.001848
940.1780	0.001173
940.4190	0.000498
940.6601	0.000772
940.9012	0.001532
941.1422	0.000202
941.3833	0.001110
941.6244	-0.000389
941.8655	0.000856
942.1066	0.001975
942.3477	0.001722
942.5889	0.001384
942.8300	0.000856
943.0711	0.000772
943.3123	0.001089
943.5534	0.002249
943.7946	0.000413
944.0357	0.000835
944.2769	0.001511
944.5181	0.001236
944.7593	0.000899
945.0005	0.000329
945.2417	0.000730
945.4829	0.001447
945.7241	0.001363
945.9653	0.002165
946.2066	0.000941
946.4478	0.002081
946.6891	0.000097
946.9303	0.001131
947.1716	0.000540
947.4128	0.001658
947.6541	0.000477
947.8954	0.000856
948.1367	0.002186
948.3780	-0.000811
948.6193	0.001321
948.8606	0.001827
949.1019	0.001363
949.3433	0.000941
949.5846	0.001384
949.8259	-0.001148
950.0673	-0.000114
950.3086	0.000667
950.5500	0.001595
950.7914	0.000392
951.0327	0.001342
951.2741	0.001764
951.5155	0.001996
951.7569	0.001680
951.9983	0.001363
952.2398	-0.000642
952.4812	0.001722
952.7226	-0.000368
952.9640	0.001722
953.2055	0.002038
953.4469	0.002587
953.6884	-0.000093
953.9299	0.003030
954.1713	0.000667
954.4128	0.000793
954.6543	0.001257
954.8958	0.001447
955.1373	0.000645
955.3788	0.001658
955.6203	0.000329
955.8618	0.001152
956.1034	0.000223
956.3449	0.001447
956.5865	0.000456
956.8280	0.001848
957.0696	0.002861
957.3111	0.000688
957.5527	0.000139
957.7943	0.000434
958.0359	0.000244
958.2775	-0.000093
958.5191	0.001089
958.7607	0.001342
959.0023	0.001827
959.2439	0.001405
959.4856	0.000413
959.7272	0.000983
959.9688	0.000033
960.2105	0.001743
960.4522	0.000582
960.6938	0.000561
960.9355	0.000498
961.1772	0.001046
961.4189	-0.000452
961.6606	0.000688
961.9023	-0.000283
962.1440	0.000519
962.3857	0.000519
962.6274	0.000941
962.8692	0.000540
963.1109	0.000308
963.3527	0.000814
963.5944	0.001025
963.8362	0.000519
964.0779	0.001447
964.3197	0.000371
964.5615	0.000772
964.8033	0.000519
965.0451	0.001236
965.2869	0.000962
965.5287	0.000392
965.7705	-0.000072
966.0123	0.000751
966.2542	-0.000389
966.4960	0.001912
966.7379	0.000793
966.9797	0.002270
967.2216	0.001004
967.4634	0.001089
967.7053	0.000688
967.9472	0.001152
968.1891	0.001426
968.4310	0.001595
968.6729	0.001869
968.9148	0.000856
969.1567	0.001384
969.3987	0.001764
969.6406	0.001384
969.8825	0.000202
970.1245	-0.000515
970.3664	0.001680
970.6084	0.000413
970.8504	0.000329
971.0923	0.001616
971.3343	0.000350
971.5763	0.001363
971.8183	0.001363
972.0603	0.000223
972.3023	0.001089
972.5443	0.000392
972.7864	0.000181
973.0284	0.001131
973.2704	0.000371
973.5125	0.001173
973.7545	0.000941
973.9966	0.000371
974.2387	0.000983
974.4807	0.000139
974.7228	-0.000072
974.9649	0.001300
975.2070	0.000645
975.4491	0.000624
975.6912	0.000962
975.9333	-0.001592
976.1755	0.000392
976.4176	0.000751
976.6597	0.000244
976.9019	0.000012
977.1440	0.000835
977.3862	0.002207
977.6283	0.001553
977.8705	0.001068
978.1127	0.001616
978.3549	-0.000009
978.5971	0.001004
978.8393	0.000645
979.0815	0.001321
979.3237	0.001089
979.5659	-0.000304
979.8082	0.000519
980.0504	0.000371
980.2926	-0.000072
980.5349	0.000941
980.7771	-0.000157
981.0194	-0.000304
981.2617	0.001701
981.5040	0.000287
981.7462	-0.000199
981.9885	0.000793
982.2308	-0.000663
982.4731	0.001004
982.7155	0.000645
982.9578	0.000223
983.2001	0.000688
983.4424	0.000878
983.6848	0.000540
983.9271	-0.000220
984.1695	0.001891
984.4118	0.000055
984.6542	0.000392
984.8966	-0.000093
985.1390	0.000751
985.3814	0.000012
985.6238	0.001152
985.8662	-0.000114
986.1086	0.001215
986.3510	-0.000325
986.5934	-0.000452
986.8358	0.001891
987.0783	-0.000072
987.3207	-0.000241
987.5632	-0.001001
987.8056	-0.000937
988.0481	0.000287
988.2906	0.002228
988.5331	-0.000325
988.7756	-0.000009
989.0180	-0.000346
989.2605	0.000856
989.5031	-0.000325
989.7456	0.000793
989.9881	0.000434
990.2306	0.001279
990.4732	-0.000220
990.7157	-0.000093
990.9582	-0.000389
991.2008	-0.000832
991.4434	-0.000304
991.6859	-0.001127
991.9285	-0.000895
992.1711	0.000202
992.4137	0.000287
992.6563	0.000308
992.8989	0.000308
993.1415	-0.000431
993.3841	-0.000579
993.6267	0.000793
993.8694	-0.000262
994.1120	-0.000346
994.3547	0.000097
994.5973	-0.000579
994.8400	0.000139
995.0826	-0.000346
995.3253	0.000645
995.5680	0.000329
995.8107	-0.000916
996.0534	0.000287
996.2961	-0.001212
996.5388	0.001658
996.7815	0.000814
997.0242	0.000202
997.2670	0.000561
997.5097	0.000540
997.7524	0.002334
997.9952	-0.000410
998.2379	0.000519
998.4807	0.001215
998.7235	0.000055
998.9662	0.001637
999.2090	-0.000304
999.4518	0.000688
999.6946	-0.000663
999.9374	-0.000157
1000.1802	0.000097
1000.4230	0.000181
1000.6659	0.001173
1000.9087	-0.000980
1001.1515	0.000582
1001.3944	0.000540
1001.6372	0.000835
1001.8801	-0.000135
1002.1230	0.000498
1002.3658	0.000814
1002.6087	-0.000135
1002.8516	-0.000895
1003.0945	0.000160
1003.3374	-0.000093
1003.5803	0.001173
1003.8232	0.001321
1004.0661	0.000540
1004.3091	-0.000431
1004.5520	0.001279
1004.7949	0.000751
1005.0379	-0.000431
1005.2808	0.000055
1005.5238	0.000730
1005.7667	-0.000283
1006.0097	0.002081
1006.2527	-0.000093
1006.4957	0.001236
1006.7387	-0.001782
1006.9817	0.000371
1007.2247	-0.000051
1007.4677	0.001046
1007.7107	0.000920
1007.9538	0.000350
1008.1968	-0.000663
1008.4398	0.000603
1008.6829	-0.001191
1008.9259	0.000012
1009.1690	-0.000853
1009.4121	0.001257
1009.6551	0.001658
1009.8982	0.001173
1010.1413	0.000456
1010.3844	-0.000346
1010.6275	-0.000536
1010.8706	0.001110
1011.1137	0.000266
1011.3568	-0.000600
1011.6000	-0.000874
1011.8431	-0.000410
1012.0863	0.000667
1012.3294	0.001321
1012.5726	-0.000030
1012.8157	0.002482
1013.0589	0.001827
1013.3021	0.001469
1013.5452	0.000498
1013.7884	0.000856
1014.0316	0.000983
1014.2748	0.001321
1014.5180	0.000287
1014.7613	0.000772
1015.0045	-0.001634
1015.2477	0.001553
1015.4909	0.000392
1015.7342	-0.000325
1015.9774	-0.000705
1016.2207	-0.000051
1016.4640	-0.001233
1016.7072	0.000181
1016.9505	-0.000262
1017.1938	0.000456
1017.4371	-0.000684
1017.6804	0.001089
1017.9237	0.001658
1018.1670	0.001194
1018.4103	0.001363
1018.6536	0.000434
1018.8969	-0.001085
1019.1403	0.000350
1019.3836	0.001131
1019.6270	-0.000072
1019.8703	0.000097
1020.1137	0.001004
1020.3571	-0.000368
1020.6004	0.000772
1020.8438	-0.001148
1021.0872	-0.000072
1021.3306	0.000434
1021.5740	-0.001402
1021.8174	-0.000558
1022.0608	0.000561
1022.3042	-0.001001
1022.5477	-0.000515
1022.7911	-0.000515
1023.0345	0.000730
