# Wavelength (nm)	Intensity (a.u.)
197.7802	0.000091
197.9842	0.000619
198.1882	-0.000436
198.3922	-0.000563
198.5963	0.000070
198.8003	-0.000626
199.0044	-0.000331
199.2085	0.000767
199.4126	0.000134
199.6168	-0.000183
199.8209	0.000535
200.0251	0.001084
200.2292	0.001886
200.4334	0.000661
200.6376	0.001168
200.8418	-0.000331
201.0461	-0.000352
201.2503	0.000556
201.4546	-0.000267
201.6589	-0.000352
201.8631	0.000471
202.0674	0.000556
202.2718	-0.000120
202.4761	0.000577
202.6805	-0.000246
202.8848	0.000049
203.0892	0.000197
203.2936	-0.000352
203.4980	-0.000858
203.7024	0.000218
203.9069	-0.001091
204.1113	0.000619
204.3158	0.001970
204.5203	0.001295
204.7248	-0.000394
204.9293	0.000281
205.1338	0.000113
205.3384	0.000767
205.5430	0.000049
205.7475	0.000493
205.9521	0.001168
206.1567	0.000429
206.3614	0.000936
206.5660	-0.000711
206.7706	0.001147
206.9753	0.000788
207.1800	-0.000943
207.3847	-0.000922
207.5894	0.000366
207.7941	-0.000668
207.9989	-0.000647
208.2036	0.000493
208.4084	0.000704
208.6132	-0.000352
208.8180	0.001084
209.0228	0.001126
209.2276	-0.000647
209.4325	0.000704
209.6373	-0.000415
209.8422	0.001020
210.0471	0.000176
210.2520	-0.000626
210.4569	0.000239
210.6618	-0.001027
210.8668	0.001020
211.0718	-0.000077
211.2767	-0.000288
211.4817	-0.000162
211.6867	0.000471
211.8918	-0.000563
212.0968	0.001463
212.3018	-0.001281
212.5069	0.000387
212.7120	0.000746
212.9171	0.000429
213.1222	0.000704
213.3273	0.000049
213.5325	-0.000246
213.7376	0.001907
213.9428	0.000851
214.1480	0.001020
214.3532	-0.000225
214.5584	-0.001048
214.7636	0.000007
214.9689	0.000872
215.1741	-0.000922
215.3794	0.000197
215.5847	0.000387
215.7900	-0.001027
215.9953	0.000851
216.2007	0.000260
216.4060	-0.001808
216.6114	-0.000816
216.8168	-0.000014
217.0222	-0.000478
217.2276	0.000661
217.4330	-0.000500
217.6384	0.000091
217.8439	-0.001281
218.0494	-0.000457
218.2548	0.000049
218.4603	-0.001513
218.6659	0.001273
218.8714	0.000408
219.0769	-0.000077
219.2825	-0.001196
219.4881	-0.000774
219.6936	0.000471
219.8992	0.000049
220.1049	-0.000373
220.3105	0.000028
220.5161	0.001295
220.7218	0.000493
220.9275	0.000007
221.1332	0.001632
221.3389	0.000556
221.5446	0.000514
221.7503	0.000577
221.9561	0.000345
222.1618	-0.000162
222.3676	-0.000584
222.5734	0.000746
222.7792	-0.000056
222.9850	0.001105
223.1909	0.000113
223.3967	0.000429
223.6026	0.000134
223.8085	-0.000605
224.0144	-0.000225
224.2203	-0.000626
224.4262	-0.000457
224.6322	-0.001703
224.8381	0.000767
225.0441	0.000324
225.2501	0.000049
225.4561	0.001337
225.6621	0.001548
225.8681	-0.000267
226.0742	0.001084
226.2802	-0.002019
226.4863	0.000324
226.6924	0.000788
226.8985	-0.000035
227.1046	0.000176
227.3107	0.000894
227.5169	-0.000711
227.7230	-0.000647
227.9292	-0.000478
228.1354	0.000957
228.3416	-0.001196
228.5478	0.000704
228.7541	0.000113
228.9603	-0.000521
229.1666	0.000936
229.3729	-0.000542
229.5791	0.000197
229.7855	0.001548
229.9918	-0.000204
230.1981	0.001062
230.4045	0.000746
230.6108	0.000830
230.8172	-0.000162
231.0236	0.000872
231.2300	0.000746
231.4364	-0.000056
231.6429	0.000682
231.8493	0.001590
232.0558	0.000535
232.2623	0.000682
232.4688	0.000556
232.6753	0.000218
232.8818	0.000471
233.0884	0.000176
233.2949	-0.001006
233.5015	0.000176
233.7081	-0.000352
233.9147	-0.000605
234.1213	-0.000436
234.3279	0.000007
234.5346	0.000851
234.7413	-0.000310
234.9479	0.000661
235.1546	0.000725
235.3613	0.000936
235.5680	0.000894
235.7748	-0.000352
235.9815	0.000682
236.1883	-0.000035
236.3951	0.001231
236.6018	-0.000225
236.8087	0.001569
237.0155	-0.000352
237.2223	0.000493
237.4292	-0.000795
237.6360	0.001632
237.8429	-0.001470
238.0498	0.000640
238.2567	-0.001935
238.4636	0.001126
238.6706	-0.001449
238.8775	0.000809
239.0845	-0.000457
239.2915	0.000345
239.4985	-0.000626
239.7055	0.000239
239.9125	-0.000732
240.1195	0.000176
240.3266	0.000345
240.5337	0.001463
240.7407	0.000577
240.9478	-0.000711
241.1549	0.000514
241.3621	0.001105
241.5692	-0.000267
241.7764	-0.000647
241.9835	0.000007
242.1907	0.001295
242.3979	-0.000436
242.6051	0.000767
242.8124	0.000007
243.0196	-0.000500
243.2269	0.000493
243.4341	0.001358
243.6414	-0.000478
243.8487	0.000429
244.0560	0.000091
244.2634	0.000176
244.4707	-0.000500
244.6781	0.000070
244.8854	0.000345
245.0928	-0.000014
245.3002	0.000366
245.5076	0.000493
245.7151	0.000155
245.9225	0.001590
246.1300	-0.000668
246.3375	-0.001048
246.5449	-0.000521
246.7524	0.000387
246.9600	0.001020
247.1675	-0.000099
247.3750	-0.001302
247.5826	0.001231
247.7902	-0.001428
247.9978	0.000471
248.2054	-0.000225
248.4130	0.000640
248.6206	0.000851
248.8283	0.002920
249.0359	-0.000647
249.2436	0.000936
249.4513	-0.000415
249.6590	-0.000141
249.8667	0.000851
250.0745	0.001358
250.2822	0.000281
250.4900	-0.000415
250.6978	-0.000732
250.9056	0.000661
251.1134	0.001442
251.3212	0.000324
251.5290	-0.000605
251.7369	-0.000056
251.9447	0.000493
252.1526	0.001020
252.3605	0.001949
252.5684	-0.000099
252.7763	-0.001112
252.9843	-0.000795
253.1922	-0.000858
253.4002	0.000767
253.6082	-0.000858
253.8162	0.000281
254.0242	-0.000415
254.2322	0.000429
254.4402	0.001506
254.6483	-0.000647
254.8564	-0.001787
255.0644	-0.000985
255.2725	-0.000690
255.4806	-0.000795
255.6888	0.000556
255.8969	0.000493
256.1051	-0.000035
256.3132	0.000197
256.5214	0.000197
256.7296	0.000366
256.9378	-0.001027
257.1460	0.001506
257.3543	-0.000457
257.5625	0.000155
257.7708	-0.001175
257.9791	0.001084
258.1874	-0.000014
258.3957	0.000450
258.6040	-0.001703
258.8124	0.001168
259.0207	0.000514
259.2291	0.001105
259.4375	0.001759
259.6459	0.000281
259.8543	-0.000183
260.0627	-0.000816
260.2711	-0.001217
260.4796	-0.000099
260.6881	0.000239
260.8965	0.000514
261.1050	-0.000035
261.3135	0.000471
261.5221	-0.000457
261.7306	0.000218
261.9392	-0.000035
262.1477	0.000450
262.3563	-0.001006
262.5649	0.000767
262.7735	0.000725
262.9822	-0.001302
263.1908	0.000978
263.3995	0.000640
263.6081	0.000281
263.8168	-0.000056
264.0255	-0.001196
264.2342	-0.000035
264.4429	0.000134
264.6517	0.000493
264.8604	-0.001175
265.0692	0.000070
265.2780	-0.000521
265.4868	-0.001259
265.6956	-0.000183
265.9044	0.000070
266.1133	-0.000668
266.3221	0.000535
266.5310	-0.000690
266.7399	-0.000690
266.9488	0.001675
267.1577	0.000851
267.3666	-0.000183
267.5755	0.001780
267.7845	0.000471
267.9935	-0.000668
268.2024	-0.000246
268.4114	0.001168
268.6205	-0.001112
268.8295	0.000366
269.0385	-0.000288
269.2476	0.000239
269.4566	-0.000415
269.6657	0.000345
269.8748	-0.001027
270.0839	0.000303
270.2931	-0.000267
270.5022	0.000493
270.7114	-0.000352
270.9205	0.000134
271.1297	-0.000246
271.3389	0.001527
271.5481	-0.000014
271.7573	0.000408
271.9666	-0.000774
272.1758	-0.000584
272.3851	-0.000183
272.5944	0.000176
272.8037	-0.000120
273.0130	0.001590
273.2223	-0.000267
273.4316	0.000936
273.6410	-0.000204
273.8504	0.001696
274.0597	0.000324
274.2691	0.000281
274.4785	-0.000183
274.6880	0.000028
274.8974	-0.000879
275.1069	-0.000035
275.3163	0.000661
275.5258	0.000155
275.7353	-0.000099
275.9448	0.000746
276.1543	-0.000352
276.3639	-0.000647
276.5734	-0.000246
276.7830	-0.000690
276.9926	-0.001027
277.2022	0.001463
277.4118	0.000936
277.6214	0.000007
277.8310	0.000661
278.0407	0.000661
278.2503	0.000429
278.4600	0.000345
278.6697	-0.001323
278.8794	0.000134
279.0891	0.000345
279.2989	0.000915
279.5086	-0.000795
279.7184	0.000957
279.9281	0.000725
280.1379	-0.000162
280.3477	0.000619
280.5576	0.000324
280.7674	-0.000288
280.9772	0.000746
281.1871	0.001949
281.3970	0.000049
281.6069	0.000113
281.8168	0.000746
282.0267	-0.000331
282.2366	0.000704
282.4466	0.001358
282.6565	-0.000204
282.8665	-0.000563
283.0765	-0.000394
283.2865	-0.000373
283.4965	0.000957
283.7065	-0.000246
283.9166	0.000978
284.1266	-0.000162
284.3367	0.000894
284.5468	-0.000141
284.7569	-0.000331
284.9670	-0.000964
285.1771	0.000134
285.3873	-0.000542
285.5974	0.001295
285.8076	0.000345
286.0178	0.000134
286.2280	-0.000626
286.4382	0.000725
286.6484	0.000113
286.8587	-0.000162
287.0689	0.000091
287.2792	-0.000225
287.4895	-0.000500
287.6998	0.000851
287.9101	-0.000858
288.1204	-0.001112
288.3308	-0.000816
288.5411	-0.000985
288.7515	-0.000668
288.9619	0.002181
289.1723	0.000872
289.3827	0.000345
289.5931	0.000830
289.8035	0.001126
290.0140	0.000091
290.2245	0.000682
290.4349	0.000429
290.6454	0.000725
290.8559	-0.000436
291.0665	0.000113
291.2770	-0.000246
291.4875	0.001020
291.6981	0.000746
291.9087	-0.000246
292.1193	0.000324
292.3299	0.001696
292.5405	-0.001281
292.7511	0.002033
292.9618	0.000894
293.1724	-0.000922
293.3831	0.000134
293.5938	0.001062
293.8045	-0.000056
294.0152	0.000514
294.2260	0.000176
294.4367	0.000113
294.6475	-0.000267
294.8582	0.000429
295.0690	-0.000162
295.2798	0.000598
295.4906	0.000091
295.7015	0.001273
295.9123	-0.000246
296.1232	0.002160
296.3340	0.000493
296.5449	-0.000120
296.7558	0.001062
296.9667	0.000091
297.1777	-0.000183
297.3886	-0.000056
297.5995	0.000767
297.8105	0.000366
298.0215	0.000598
298.2325	0.000260
298.4435	0.000471
298.6545	0.000725
298.8656	-0.000985
299.0766	0.000936
299.2877	0.000155
299.4988	0.000872
299.7099	0.000007
299.9210	0.000155
300.1321	-0.000204
300.3432	-0.000563
300.5544	-0.000626
300.7655	0.001865
300.9767	0.000218
301.1879	0.000704
301.3991	0.001210
301.6103	0.000809
301.8215	0.001485
302.0328	0.000471
302.2441	-0.001386
302.4553	0.000366
302.6666	-0.000626
302.8779	0.001020
303.0892	0.000767
303.3006	0.000661
303.5119	0.000408
303.7233	0.001400
303.9346	-0.000415
304.1460	-0.001259
304.3574	0.001569
304.5688	-0.000521
304.7803	0.000303
304.9917	-0.000183
305.2031	0.000957
305.4146	0.000851
305.6261	0.001020
305.8376	-0.000246
306.0491	-0.000584
306.2606	0.000028
306.4722	-0.000014
306.6837	0.000725
306.8953	0.001421
307.1069	0.000577
307.3184	0.000725
307.5301	0.001865
307.7417	0.000577
307.9533	0.001379
308.1650	0.000366
308.3766	0.000682
308.5883	-0.000753
308.8000	0.002287
309.0117	-0.000732
309.2234	0.001379
309.4351	0.000028
309.6469	0.000007
309.8586	0.000408
310.0704	0.000894
310.2822	0.001337
310.4940	0.000324
310.7058	-0.000774
310.9176	0.000830
311.1295	-0.000225
311.3413	-0.000225
311.5532	0.000978
311.7651	-0.000668
311.9770	0.001569
312.1889	-0.000732
312.4008	0.000197
312.6127	0.000978
312.8247	0.000725
313.0366	0.001611
313.2486	0.000281
313.4606	0.001126
313.6726	0.001696
313.8846	0.000851
314.0967	-0.001006
314.3087	0.000493
314.5208	0.001231
314.7328	0.001717
314.9449	0.001147
315.1570	0.003279
315.3692	0.000556
315.5813	0.000915
315.7934	0.000682
316.0056	0.001780
316.2177	0.000113
316.4299	0.000704
316.6421	0.000746
316.8543	0.000682
317.0666	0.000070
317.2788	0.000999
317.4911	-0.000816
317.7033	0.000070
317.9156	0.001653
318.1279	0.000134
318.3402	0.000809
318.5525	0.001316
318.7649	0.001717
318.9772	0.002202
319.1896	0.000767
319.4019	0.000704
319.6143	0.001991
319.8267	0.000134
320.0392	0.000260
320.2516	0.000450
320.4640	0.002054
320.6765	0.001675
320.8890	0.001210
321.1014	0.000957
321.3139	0.001485
321.5265	0.001886
321.7390	0.000809
321.9515	0.001506
322.1641	0.002772
322.3766	0.001780
322.5892	0.001337
322.8018	0.001527
323.0144	0.001316
323.2270	0.001949
323.4397	0.002434
323.6523	0.002498
323.8650	0.001780
324.0777	0.003131
324.2904	0.001527
324.5031	0.002603
324.7158	0.002519
324.9285	0.002308
325.1412	0.003469
325.3540	0.002223
325.5668	0.002962
325.7796	0.002582
325.9924	0.003279
326.2052	0.002793
326.4180	0.002244
326.6308	0.001843
326.8437	0.002857
327.0566	0.003870
327.2694	0.002033
327.4823	0.001801
327.6952	0.002350
327.9082	0.003553
328.1211	0.002688
328.3340	0.002751
328.5470	0.001843
328.7600	0.002772
328.9730	0.002793
329.1860	0.003448
329.3990	0.001062
329.6120	0.004461
329.8251	0.001865
330.0381	0.003870
330.2512	0.004017
330.4643	0.003426
330.6774	0.002793
330.8905	0.002540
331.1036	0.002350
331.3167	0.003110
331.5299	0.004060
331.7431	0.003384
331.9562	0.002878
332.1694	0.003236
332.3826	0.002540
332.5959	0.004186
332.8091	0.002308
333.0223	0.003891
333.2356	0.004334
333.4489	0.002962
333.6622	0.002456
333.8755	0.003743
334.0888	0.002561
334.3021	0.005010
334.5154	0.002371
334.7288	0.003131
334.9422	0.004587
335.1555	0.004904
335.3689	0.003110
335.5823	0.004229
335.7958	0.002371
336.0092	0.004313
336.2227	0.003363
336.4361	0.005833
336.6496	0.003194
336.8631	0.003933
337.0766	0.004060
337.2901	0.004229
337.5036	0.004419
337.7172	0.004714
337.9307	0.005284
338.1443	0.003300
338.3579	0.004946
338.5715	0.005643
338.7851	0.003490
338.9987	0.006044
339.2124	0.005727
339.4260	0.004587
339.6397	0.004545
339.8533	0.004081
340.0670	0.003616
340.2807	0.007078
340.4945	0.004207
340.7082	0.006529
340.9219	0.006149
341.1357	0.006761
341.3495	0.006677
341.5633	0.006825
341.7771	0.004883
341.9909	0.006234
342.2047	0.004925
342.4185	0.005474
342.6324	0.005980
342.8463	0.006761
343.0601	0.005031
343.2740	0.005896
343.4879	0.005200
343.7019	0.005917
343.9158	0.005432
344.1297	0.006213
344.3437	0.006360
344.5577	0.006424
344.7717	0.005748
344.9857	0.006761
345.1997	0.006107
345.4137	0.004841
345.6277	0.005791
345.8418	0.005368
346.0559	0.006529
346.2699	0.006192
346.4840	0.006213
346.6981	0.007036
346.9123	0.006149
347.1264	0.007184
347.3406	0.007226
347.5547	0.008155
347.7689	0.007163
347.9831	0.007247
348.1973	0.006339
348.4115	0.008091
348.6257	0.006951
348.8400	0.007416
349.0542	0.008155
349.2685	0.007120
349.4828	0.006973
349.6971	0.008155
349.9114	0.007395
350.1257	0.007711
350.3400	0.007690
350.5544	0.008176
350.7687	0.007078
350.9831	0.009315
351.1975	0.008387
351.4119	0.007078
351.6263	0.007585
351.8407	0.008703
352.0552	0.009189
352.2696	0.008260
352.4841	0.007943
352.6986	0.006740
352.9131	0.009168
353.1276	0.008366
353.3421	0.008302
353.5566	0.008450
353.7712	0.010033
353.9858	0.008302
354.2003	0.008133
354.4149	0.009252
354.6295	0.008513
354.8441	0.009062
355.0588	0.007247
355.2734	0.008281
355.4881	0.007922
355.7027	0.009843
355.9174	0.009695
356.1321	0.006994
356.3468	0.009147
356.5615	0.009252
356.7763	0.009041
356.9910	0.008978
357.2058	0.008387
357.4206	0.010075
357.6353	0.008281
357.8501	0.011046
358.0650	0.007606
358.2798	0.009928
358.4946	0.008007
358.7095	0.009505
358.9243	0.008936
359.1392	0.011152
359.3541	0.010308
359.5690	0.009527
359.7839	0.009210
359.9989	0.009147
360.2138	0.011131
360.4288	0.009759
360.6438	0.009337
360.8587	0.010519
361.0737	0.009083
361.2888	0.011004
361.5038	0.010645
361.7188	0.009970
361.9339	0.010202
362.1489	0.009104
362.3640	0.010709
362.5791	0.008556
362.7942	0.011342
363.0093	0.011785
363.2245	0.009928
363.4396	0.009590
363.6548	0.008577
363.8699	0.010941
364.0851	0.010329
364.3003	0.010624
364.5155	0.011131
364.7308	0.010751
364.9460	0.009906
365.1612	0.010962
365.3765	0.009611
365.5918	0.010856
365.8071	0.012334
366.0224	0.011025
366.2377	0.010962
366.4530	0.011194
366.6684	0.011869
366.8837	0.012608
367.0991	0.012482
367.3145	0.013347
367.5299	0.013368
367.7453	0.013073
367.9607	0.012144
368.1761	0.011848
368.3916	0.012629
368.6070	0.014255
368.8225	0.010709
369.0380	0.014001
369.2535	0.012967
369.4690	0.010962
369.6845	0.013347
369.9001	0.014001
370.1156	0.013706
370.3312	0.013030
370.5468	0.011996
370.7624	0.011658
370.9780	0.013833
371.1936	0.010899
371.4092	0.012503
371.6249	0.013579
371.8405	0.013263
372.0562	0.013389
372.2719	0.012418
372.4876	0.013600
372.7033	0.012165
372.9190	0.016598
373.1348	0.011405
373.3505	0.014086
373.5663	0.014487
373.7820	0.015120
373.9978	0.014128
374.2136	0.013917
374.4294	0.014846
374.6453	0.015373
374.8611	0.013453
375.0770	0.014635
375.2928	0.016154
375.5087	0.015394
375.7246	0.015394
375.9405	0.017168
376.1564	0.016154
376.3724	0.017104
376.5883	0.015120
376.8043	0.017125
377.0203	0.016492
377.2362	0.017252
377.4522	0.017970
377.6682	0.019067
377.8843	0.018413
378.1003	0.019764
378.3164	0.018350
378.5324	0.017885
378.7485	0.017822
378.9646	0.021115
379.1807	0.020059
379.3968	0.020186
379.6129	0.019025
379.8291	0.020756
380.0452	0.019320
380.2614	0.020460
380.4776	0.019743
380.6938	0.021241
380.9100	0.019236
381.1262	0.022086
381.3424	0.020904
381.5587	0.020291
381.7749	0.019595
381.9912	0.021157
382.2075	0.021938
382.4238	0.021727
382.6401	0.020692
382.8564	0.022297
383.0728	0.022297
383.2891	0.021748
383.5055	0.021115
383.7219	0.023183
383.9382	0.020080
384.1546	0.022824
384.3711	0.022149
384.5875	0.023035
384.8039	0.023732
385.0204	0.023141
385.2368	0.021685
385.4533	0.023120
385.6698	0.023289
385.8863	0.022972
386.1028	0.023795
386.3194	0.022254
386.5359	0.022698
386.7525	0.023373
386.9690	0.024830
387.1856	0.025146
387.4022	0.024386
387.6188	0.025421
387.8355	0.025188
388.0521	0.024070
388.2687	0.025969
388.4854	0.026518
388.7021	0.024640
388.9188	0.026877
389.1355	0.024239
389.3522	0.024872
389.5689	0.024766
389.7856	0.024787
390.0024	0.025547
390.2192	0.025421
390.4359	0.024175
390.6527	0.025948
390.8695	0.025484
391.0863	0.026455
391.3032	0.026370
391.5200	0.026392
391.7369	0.025843
391.9537	0.029262
392.1706	0.028861
392.3875	0.028376
392.6044	0.028376
392.8213	0.031415
393.0383	0.031394
393.2552	0.030972
393.4722	0.030381
393.6891	0.030085
393.9061	0.028924
394.1231	0.031521
394.3401	0.029980
394.5572	0.029283
394.7742	0.030676
394.9912	0.030465
395.2083	0.031246
395.4254	0.031394
395.6425	0.030212
395.8596	0.032365
396.0767	0.027890
396.2938	0.031732
396.5109	0.030676
396.7281	0.031732
396.9453	0.032829
397.1624	0.033040
397.3796	0.032766
397.5968	0.032449
397.8140	0.032766
398.0313	0.034771
398.2485	0.035067
398.4658	0.034391
398.6830	0.036692
398.9003	0.037304
399.1176	0.037895
399.3349	0.034729
399.5522	0.035447
399.7696	0.033484
399.9869	0.033653
400.2043	0.034391
400.4216	0.033209
400.6390	0.033505
400.8564	0.034286
401.0738	0.035995
401.2912	0.034349
401.5087	0.034771
401.7261	0.031394
401.9436	0.032386
402.1610	0.034307
402.3785	0.035003
402.5960	0.034982
402.8135	0.032618
403.0310	0.032323
403.2486	0.033547
403.4661	0.032112
403.6837	0.034813
403.9013	0.032766
404.1189	0.035658
404.3365	0.034412
404.5541	0.034750
404.7717	0.035700
404.9893	0.036249
405.2070	0.036502
405.4246	0.037874
405.6423	0.036481
405.8600	0.037093
406.0777	0.039119
406.2954	0.035637
406.5131	0.034877
406.7309	0.034349
406.9486	0.031056
407.1664	0.031394
407.3842	0.032492
407.6020	0.033547
407.8198	0.032133
408.0376	0.034645
408.2554	0.036608
408.4733	0.034518
408.6911	0.034623
408.9090	0.035679
409.1269	0.034729
409.3448	0.034497
409.5627	0.035974
409.7806	0.037051
409.9985	0.035046
410.2165	0.036755
410.4344	0.033758
410.6524	0.033526
410.8704	0.033716
411.0884	0.033463
411.3064	0.035025
411.5244	0.035299
411.7424	0.033463
411.9605	0.035447
412.1785	0.036523
412.3966	0.036143
412.6147	0.037220
412.8328	0.036671
413.0509	0.038275
413.2690	0.035784
413.4871	0.038254
413.7053	0.036164
413.9234	0.038571
414.1416	0.035658
414.3598	0.036671
414.5780	0.035046
414.7962	0.035447
415.0144	0.034286
415.2326	0.035236
415.4509	0.034940
415.6692	0.037579
415.8874	0.035404
416.1057	0.035362
416.3240	0.037642
416.5423	0.036333
416.7606	0.038064
416.9790	0.036101
417.1973	0.035594
417.4157	0.036143
417.6341	0.035721
417.8524	0.036164
418.0708	0.036017
418.2893	0.035468
418.5077	0.036840
418.7261	0.036270
418.9446	0.035003
419.1630	0.040745
419.3815	0.038993
419.6000	0.039795
419.8185	0.036903
420.0370	0.039098
420.2555	0.038191
420.4741	0.037980
420.6926	0.041293
420.9112	0.042560
421.1298	0.040702
421.3483	0.044059
421.5669	0.044861
421.7856	0.046275
422.0042	0.045726
422.2228	0.045789
422.4415	0.045409
422.6601	0.044607
422.8788	0.041589
423.0975	0.043826
423.3162	0.043636
423.5349	0.042813
423.7536	0.042328
423.9724	0.041040
424.1911	0.040766
424.4099	0.040829
424.6287	0.041589
424.8475	0.042792
425.0663	0.042982
425.2851	0.041652
425.5039	0.041673
425.7228	0.038972
425.9416	0.039795
426.1605	0.039689
426.3793	0.039668
426.5982	0.039204
426.8171	0.037600
427.0361	0.040534
427.2550	0.041125
427.4739	0.041441
427.6929	0.040428
427.9118	0.041293
428.1308	0.040491
428.3498	0.039689
428.5688	0.038549
428.7878	0.040154
429.0068	0.041948
429.2259	0.041948
429.4449	0.042497
429.6640	0.048681
429.8831	0.046022
430.1022	0.049990
430.3213	0.049504
430.5404	0.047942
430.7595	0.048850
430.9787	0.046359
431.1978	0.044439
431.4170	0.043932
431.6362	0.043130
431.8553	0.043341
432.0745	0.038423
432.2938	0.039584
432.5130	0.039499
432.7322	0.040027
432.9515	0.038549
433.1707	0.038655
433.3900	0.041505
433.6093	0.044840
433.8286	0.047351
434.0479	0.050560
434.2673	0.047351
434.4866	0.041526
434.7059	0.044713
434.9253	0.043003
435.1447	0.041462
435.3641	0.045346
435.5835	0.042370
435.8029	0.043067
436.0223	0.042053
436.2418	0.044396
436.4612	0.046127
436.6807	0.046781
436.9001	0.045452
437.1196	0.045789
437.3391	0.041336
437.5586	0.042729
437.7782	0.043826
437.9977	0.043890
438.2173	0.045093
438.4368	0.046233
438.6564	0.046212
438.8760	0.045431
439.0956	0.047014
439.3152	0.045789
439.5348	0.045705
439.7545	0.047689
439.9741	0.043932
440.1938	0.044966
440.4135	0.044987
440.6331	0.046359
440.8528	0.047119
441.0725	0.050539
441.2923	0.052354
441.5120	0.054422
441.7318	0.056153
441.9515	0.056934
442.1713	0.053684
442.3911	0.055689
442.6109	0.051721
442.8307	0.050982
443.0505	0.051510
443.2703	0.052776
443.4902	0.056217
443.7101	0.056808
443.9299	0.056554
444.1498	0.053283
444.3697	0.053599
444.5896	0.054359
444.8095	0.053536
445.0295	0.053135
445.2494	0.054338
445.4694	0.054612
445.6894	0.051467
445.9093	0.053641
446.1293	0.051320
446.3493	0.054802
446.5694	0.054655
446.7894	0.053789
447.0094	0.052692
447.2295	0.054401
447.4496	0.053240
447.6696	0.052607
447.8897	0.052037
448.1098	0.052143
448.3300	0.051488
448.5501	0.050243
448.7702	0.050665
448.9904	0.052945
449.2106	0.052079
449.4307	0.052354
449.6509	0.052459
449.8711	0.050222
450.0914	0.052101
450.3116	0.052797
450.5318	0.052058
450.7521	0.050813
450.9724	0.049926
451.1926	0.048597
451.4129	0.047225
451.6332	0.049145
451.8535	0.050813
452.0739	0.049145
452.2942	0.048956
452.5146	0.047879
452.7349	0.050285
452.9553	0.048998
453.1757	0.049610
453.3961	0.046613
453.6165	0.046317
453.8369	0.046507
454.0574	0.047942
454.2778	0.048766
454.4983	0.044628
454.7188	0.043299
454.9393	0.045853
455.1597	0.047795
455.3803	0.049504
455.6008	0.050433
455.8213	0.050855
456.0419	0.049969
456.2624	0.047795
456.4830	0.047562
456.7036	0.048618
456.9242	0.047605
457.1448	0.050433
457.3654	0.049293
457.5860	0.050475
457.8067	0.049737
458.0274	0.051341
458.2480	0.053008
458.4687	0.053641
458.6894	0.051995
458.9101	0.052839
459.1308	0.052058
459.3516	0.049293
459.5723	0.052860
459.7931	0.055583
460.0138	0.053451
460.2346	0.052269
460.4554	0.051889
460.6762	0.050032
460.8970	0.050602
461.1178	0.053852
461.3387	0.052628
461.5595	0.052987
461.7804	0.053705
462.0013	0.046064
462.2222	0.047204
462.4431	0.045578
462.6640	0.046507
462.8849	0.048660
463.1059	0.045473
463.3268	0.047942
463.5478	0.050602
463.7687	0.048956
463.9897	0.050876
464.2107	0.053177
464.4317	0.051404
464.6528	0.055457
464.8738	0.056871
465.0948	0.059298
465.3159	0.056913
465.5370	0.056069
465.7581	0.057377
465.9792	0.058285
466.2003	0.057209
466.4214	0.053050
466.6425	0.052544
466.8637	0.050285
467.0848	0.051109
467.3060	0.048301
467.5272	0.046929
467.7484	0.050602
467.9696	0.047182
468.1908	0.050306
468.4120	0.047182
468.6333	0.048069
468.8545	0.045114
469.0758	0.043847
469.2970	0.044249
469.5183	0.044797
469.7396	0.043805
469.9610	0.044945
470.1823	0.040766
470.4036	0.041082
470.6250	0.041209
470.8463	0.042412
471.0677	0.041293
471.2891	0.040956
471.5105	0.040175
471.7319	0.041188
471.9533	0.040133
472.1748	0.043721
472.3962	0.042412
472.6177	0.043130
472.8391	0.045114
473.0606	0.046148
473.2821	0.047858
473.5036	0.047942
473.7251	0.042201
473.9467	0.047372
474.1682	0.046254
474.3898	0.045367
474.6113	0.046085
474.8329	0.046380
475.0545	0.050306
475.2761	0.050095
475.4977	0.052101
475.7193	0.049610
475.9410	0.047985
476.1626	0.049335
476.3843	0.049969
476.6060	0.050412
476.8277	0.048491
477.0494	0.047056
477.2711	0.044206
477.4928	0.047858
477.7145	0.045093
477.9363	0.048681
478.1580	0.049525
478.3798	0.047330
478.6016	0.047837
478.8234	0.045452
479.0452	0.050560
479.2670	0.049124
479.4888	0.048407
479.7107	0.050074
479.9325	0.051953
480.1544	0.054908
480.3763	0.051974
480.5982	0.051066
480.8201	0.053114
481.0420	0.051531
481.2639	0.053663
481.4859	0.055013
481.7078	0.053177
481.9298	0.053093
482.1517	0.055098
482.3737	0.051805
482.5957	0.050032
482.8177	0.048934
483.0398	0.051320
483.2618	0.050919
483.4838	0.053895
483.7059	0.053895
483.9280	0.052523
484.1501	0.055562
484.3721	0.056174
484.5943	0.057166
484.8164	0.060544
485.0385	0.061092
485.2606	0.061113
485.4828	0.083150
485.7050	0.135159
485.9271	0.190524
486.1493	0.202640
486.3715	0.173997
486.5937	0.132879
486.8160	0.111012
487.0382	0.109703
487.2605	0.105102
487.4827	0.085641
487.7050	0.067615
487.9273	0.061916
488.1496	0.058665
488.3719	0.053726
488.5942	0.055752
488.8165	0.053705
489.0389	0.054169
489.2612	0.052924
489.4836	0.054908
489.7060	0.055647
489.9284	0.054359
490.1508	0.055203
490.3732	0.054760
490.5956	0.052966
490.8180	0.054042
491.0405	0.053388
491.2630	0.054359
491.4854	0.050897
491.7079	0.052523
491.9304	0.050876
492.1529	0.052312
492.3755	0.049842
492.5980	0.054127
492.8205	0.051953
493.0431	0.049399
493.2657	0.050074
493.4882	0.052565
493.7108	0.054085
493.9334	0.050053
494.1561	0.052101
494.3787	0.054021
494.6013	0.052438
494.8240	0.052312
495.0466	0.050116
495.2693	0.051425
495.4920	0.050264
495.7147	0.048428
495.9374	0.052839
496.1601	0.053494
496.3829	0.059172
496.6056	0.058327
496.8284	0.057399
497.0511	0.054296
497.2739	0.052164
497.4967	0.053705
497.7195	0.048913
497.9423	0.048111
498.1652	0.048998
498.3880	0.049990
498.6109	0.051678
498.8337	0.051615
499.0566	0.054633
499.2795	0.054106
499.5024	0.053768
499.7253	0.055520
499.9482	0.052945
500.1712	0.053726
500.3941	0.052269
500.6171	0.052860
500.8400	0.049715
501.0630	0.052480
501.2860	0.053937
501.5090	0.057293
501.7320	0.055710
501.9551	0.055288
502.1781	0.054127
502.4012	0.055035
502.6242	0.056491
502.8473	0.058433
503.0704	0.055457
503.2935	0.055499
503.5166	0.056385
503.7397	0.056681
503.9628	0.054528
504.1860	0.052692
504.4092	0.051615
504.6323	0.051256
504.8555	0.051277
505.0787	0.050496
505.3019	0.051003
505.5251	0.054465
505.7483	0.051172
505.9716	0.049357
506.1948	0.048681
506.4181	0.053747
506.6414	0.053219
506.8647	0.055203
507.0880	0.050602
507.3113	0.049842
507.5346	0.048449
507.7579	0.050159
507.9813	0.052945
508.2046	0.049842
508.4280	0.048639
508.6514	0.051193
508.8748	0.050433
509.0982	0.049167
509.3216	0.048639
509.5450	0.048702
509.7685	0.047774
509.9919	0.048259
510.2154	0.050243
510.4388	0.048576
510.6623	0.049399
510.8858	0.048892
511.1093	0.048829
511.3329	0.047626
511.5564	0.050032
511.7799	0.047837
512.0035	0.045536
512.2270	0.047584
512.4506	0.047731
512.6742	0.045241
512.8978	0.045409
513.1214	0.045810
513.3451	0.047562
513.5687	0.046760
513.7923	0.044206
514.0160	0.045621
514.2397	0.043700
514.4634	0.045536
514.6871	0.044713
514.9108	0.045262
515.1345	0.042011
515.3582	0.040470
515.5819	0.040618
515.8057	0.042243
516.0295	0.042433
516.2532	0.042454
516.4770	0.042433
516.7008	0.043679
516.9246	0.041631
517.1485	0.045030
517.3723	0.042898
517.5961	0.042560
517.8200	0.040069
518.0439	0.040428
518.2677	0.039098
518.4916	0.039858
518.7155	0.037684
518.9395	0.040344
519.1634	0.042264
519.3873	0.041716
519.6113	0.043953
519.8352	0.043214
520.0592	0.042201
520.2832	0.039499
520.5072	0.038296
520.7312	0.038317
520.9552	0.039985
521.1792	0.037790
521.4033	0.038613
521.6273	0.040344
521.8514	0.038022
522.0755	0.036375
522.2996	0.036755
522.5237	0.035383
522.7478	0.040470
522.9719	0.038824
523.1960	0.038127
523.4202	0.035742
523.6443	0.038782
523.8685	0.038254
524.0927	0.037853
524.3169	0.040196
524.5411	0.037937
524.7653	0.038402
524.9895	0.035214
525.2138	0.037621
525.4380	0.038782
525.6623	0.036755
525.8865	0.037135
526.1108	0.037346
526.3351	0.037283
526.5594	0.038782
526.7837	0.037051
527.0081	0.038993
527.2324	0.038676
527.4568	0.038022
527.6811	0.037747
527.9055	0.036608
528.1299	0.036798
528.3543	0.037220
528.5787	0.041104
528.8031	0.044481
529.0276	0.040850
529.2520	0.040512
529.4765	0.039288
529.7009	0.040133
529.9254	0.042011
530.1499	0.040681
530.3744	0.039626
530.5989	0.037853
530.8234	0.038993
531.0480	0.036798
531.2725	0.039563
531.4971	0.036481
531.7217	0.037325
531.9462	0.036776
532.1708	0.039225
532.3954	0.039014
532.6200	0.038444
532.8447	0.039647
533.0693	0.042560
533.2940	0.041125
533.5186	0.046296
533.7433	0.043953
533.9680	0.046085
534.1927	0.045684
534.4174	0.044903
534.6421	0.045642
534.8668	0.044945
535.0916	0.047963
535.3163	0.047689
535.5411	0.044080
535.7659	0.045494
535.9907	0.043932
536.2155	0.043088
536.4403	0.041399
536.6651	0.042138
536.8899	0.040512
537.1148	0.042201
537.3396	0.040639
537.5645	0.042370
537.7894	0.041652
538.0143	0.041420
538.2392	0.044523
538.4641	0.045156
538.6890	0.045663
538.9139	0.047520
539.1389	0.046486
539.3638	0.047668
539.5888	0.047478
539.8138	0.046423
540.0388	0.045367
540.2638	0.047204
540.4888	0.044502
540.7138	0.046908
540.9389	0.046000
541.1639	0.048386
541.3890	0.048175
541.6140	0.046655
541.8391	0.046929
542.0642	0.046402
542.2893	0.047795
542.5144	0.049926
542.7396	0.050940
542.9647	0.049441
543.1899	0.048512
543.4150	0.047035
543.6402	0.050159
543.8654	0.049990
544.0906	0.050517
544.3158	0.050665
544.5410	0.052692
544.7662	0.051805
544.9915	0.051087
545.2167	0.053430
545.4420	0.050919
545.6673	0.049926
545.8926	0.047562
546.1179	0.048744
546.3432	0.047056
546.5685	0.046085
546.7938	0.048491
547.0192	0.047710
547.2445	0.049040
547.4699	0.049737
547.6953	0.052523
547.9206	0.054633
548.1460	0.056470
548.3715	0.056280
548.5969	0.055288
548.8223	0.055710
549.0478	0.052523
549.2732	0.051573
549.4987	0.049842
549.7242	0.050243
549.9496	0.050454
550.1751	0.049589
550.4007	0.049378
550.6262	0.050454
550.8517	0.044882
551.0773	0.047415
551.3028	0.044439
551.5284	0.044164
551.7540	0.045304
551.9796	0.050328
552.2052	0.054528
552.4308	0.053852
552.6564	0.051320
552.8820	0.053198
553.1077	0.049568
553.3333	0.052417
553.5590	0.054000
553.7847	0.054507
554.0104	0.054359
554.2361	0.053895
554.4618	0.049800
554.6875	0.048407
554.9132	0.047858
555.1390	0.051636
555.3648	0.051678
555.5905	0.053283
555.8163	0.054570
556.0421	0.056786
556.2679	0.056470
556.4937	0.055541
556.7195	0.052248
556.9454	0.050032
557.1712	0.049124
557.3971	0.050328
557.6230	0.051657
557.8488	0.053388
558.0747	0.052713
558.3006	0.051974
558.5266	0.049547
558.7525	0.047267
558.9784	0.046929
559.2044	0.047795
559.4303	0.050032
559.6563	0.048407
559.8823	0.048027
560.1083	0.053515
560.3343	0.056596
560.5603	0.057610
560.7863	0.057061
561.0124	0.060375
561.2384	0.063879
561.4645	0.061346
561.6905	0.059931
561.9166	0.058707
562.1427	0.058665
562.3688	0.056385
562.5949	0.056364
562.8211	0.056955
563.0472	0.058939
563.2733	0.057103
563.4995	0.057842
563.7257	0.058158
563.9519	0.059847
564.1781	0.059995
564.4043	0.060522
564.6305	0.061156
564.8567	0.061557
565.0829	0.061135
565.3092	0.062507
565.5355	0.064828
565.7617	0.061578
565.9880	0.065736
566.2143	0.063098
566.4406	0.066433
566.6669	0.065124
566.8932	0.065483
567.1196	0.068902
567.3459	0.074876
567.5723	0.081039
567.7987	0.083952
568.0250	0.084733
568.2514	0.084416
568.4778	0.086464
568.7043	0.093957
568.9307	0.097756
569.1571	0.103666
569.3836	0.110168
569.6100	0.125850
569.8365	0.133111
570.0630	0.143433
570.2895	0.152066
570.5160	0.145903
570.7425	0.149660
570.9690	0.152678
571.1956	0.168678
571.4221	0.176910
571.6487	0.173765
571.8752	0.185564
572.1018	0.190207
572.3284	0.192445
572.5550	0.177205
572.7816	0.161881
573.0082	0.158652
573.2349	0.171126
573.4615	0.185311
573.6882	0.197806
573.9149	0.205088
574.1415	0.208888
574.3682	0.221953
574.5949	0.227800
574.8216	0.225162
575.0484	0.229446
575.2751	0.227040
575.5018	0.227040
575.7286	0.218428
575.9554	0.207094
576.1821	0.205236
576.4089	0.207072
576.6357	0.218133
576.8626	0.234111
577.0894	0.234428
577.3162	0.235251
577.5431	0.242069
577.7699	0.270648
577.9968	0.309360
578.2237	0.299481
578.4505	0.284643
578.6774	0.263915
578.9044	0.253003
579.1313	0.240422
579.3582	0.236074
579.5851	0.245868
579.8121	0.249710
580.0391	0.258005
580.2660	0.253298
580.4930	0.250132
580.7200	0.243483
580.9470	0.252390
581.1741	0.288020
581.4011	0.347628
581.6281	0.386297
581.8552	0.393072
582.0822	0.380091
582.3093	0.366984
582.5364	0.339881
582.7635	0.309529
582.9906	0.284368
583.2177	0.264084
583.4449	0.247451
583.6720	0.231072
583.8991	0.220560
584.1263	0.225077
584.3535	0.228560
584.5807	0.231979
584.8079	0.244137
585.0351	0.267292
585.2623	0.266807
585.4895	0.277931
585.7167	0.274152
585.9440	0.265899
586.1713	0.251884
586.3985	0.233710
586.6258	0.227779
586.8531	0.232169
587.0804	0.246523
587.3077	0.257097
587.5350	0.261699
587.7624	0.255662
587.9897	0.249245
588.2171	0.236560
588.4445	0.232634
588.6718	0.226850
588.8992	0.214249
589.1266	0.200761
589.3540	0.189068
589.5815	0.186092
589.8089	0.185923
590.0363	0.183791
590.2638	0.177881
590.4913	0.166673
590.7187	0.160467
590.9462	0.151792
591.1737	0.147908
591.4012	0.147422
591.6288	0.145101
591.8563	0.145966
592.0838	0.144383
592.3114	0.148246
592.5389	0.167939
592.7665	0.198862
592.9941	0.218829
593.2217	0.222565
593.4493	0.219167
593.6769	0.217204
593.9046	0.212159
594.1322	0.200592
594.3598	0.186788
594.5875	0.186661
594.8152	0.199410
595.0429	0.212370
595.2705	0.215811
595.4983	0.210407
595.7260	0.201479
595.9537	0.190207
596.1814	0.178324
596.4092	0.165596
596.6369	0.154557
596.8647	0.152678
597.0925	0.158356
597.3203	0.162451
597.5481	0.162092
597.7759	0.164119
598.0037	0.150736
598.2315	0.150884
598.4594	0.151644
598.6872	0.167517
598.9151	0.189047
599.1430	0.199474
599.3709	0.201036
599.5988	0.192318
599.8267	0.189152
600.0546	0.197046
600.2825	0.198228
600.5105	0.197574
600.7384	0.193606
600.9664	0.199685
601.1944	0.201648
601.4223	0.199094
601.6503	0.186619
601.8783	0.184361
602.1064	0.180435
602.3344	0.175622
602.5624	0.180878
602.7905	0.182651
603.0185	0.190609
603.2466	0.191326
603.4747	0.199030
603.7028	0.201521
603.9309	0.193416
604.1590	0.184382
604.3871	0.178662
604.6152	0.172646
604.8434	0.164308
605.0715	0.162915
605.2997	0.168509
605.5279	0.173385
605.7561	0.177564
605.9843	0.189933
606.2125	0.181574
606.4407	0.172583
606.6689	0.164097
606.8972	0.162725
607.1254	0.168256
607.3537	0.164688
607.5819	0.169860
607.8102	0.167538
608.0385	0.160235
608.2668	0.158567
608.4951	0.155317
608.7235	0.151032
608.9518	0.149976
609.1801	0.146072
609.4085	0.139127
609.6369	0.136531
609.8653	0.148098
610.0936	0.153079
610.3220	0.159010
610.5505	0.154430
610.7789	0.144784
611.0073	0.143623
611.2357	0.144024
611.4642	0.142378
611.6927	0.143644
611.9211	0.143243
612.1496	0.137607
612.3781	0.131761
612.6066	0.136003
612.8351	0.136510
613.0637	0.137903
613.2922	0.135412
613.5208	0.133914
613.7493	0.133892
613.9779	0.131296
614.2065	0.133935
614.4351	0.134758
614.6637	0.134589
614.8923	0.132056
615.1209	0.133491
615.3495	0.133344
615.5782	0.135687
615.8068	0.137523
616.0355	0.134146
616.2642	0.124457
616.4929	0.117977
616.7216	0.117091
616.9503	0.113904
617.1790	0.108458
617.4077	0.113714
617.6365	0.115677
617.8652	0.112046
618.0940	0.110843
618.3227	0.109492
618.5515	0.105566
618.7803	0.101429
619.0091	0.094147
619.2379	0.092374
619.4667	0.088828
619.6956	0.091825
619.9244	0.096173
620.1533	0.099804
620.3821	0.102759
620.6110	0.096258
620.8399	0.090770
621.0688	0.081757
621.2977	0.076839
621.5266	0.076712
621.7556	0.081841
621.9845	0.082116
622.2135	0.087266
622.4424	0.088258
622.6714	0.089904
622.9004	0.089820
623.1294	0.090580
623.3584	0.089187
623.5874	0.090432
623.8164	0.090453
624.0454	0.088828
624.2745	0.088553
624.5035	0.090854
624.7326	0.096426
624.9617	0.092332
625.1908	0.090369
625.4199	0.086485
625.6490	0.084881
625.8781	0.080828
626.1072	0.079730
626.3364	0.077050
626.5655	0.072427
626.7947	0.072934
627.0238	0.071182
627.2530	0.071224
627.4822	0.075340
627.7114	0.072089
627.9406	0.067277
628.1698	0.067952
628.3991	0.062148
628.6283	0.060375
628.8576	0.057483
629.0868	0.058158
629.3161	0.063309
629.5454	0.065588
629.7747	0.065251
630.0040	0.064237
630.2333	0.062359
630.4626	0.060354
630.6920	0.059425
630.9213	0.060438
631.1507	0.055921
631.3801	0.053663
631.6094	0.052586
631.8388	0.053367
632.0682	0.052101
632.2976	0.051615
632.5271	0.049926
632.7565	0.049061
632.9859	0.045916
633.2154	0.044692
633.4448	0.045198
633.6743	0.044987
633.9038	0.045219
634.1333	0.042771
634.3628	0.046866
634.5923	0.043320
634.8218	0.040829
635.0514	0.041209
635.2809	0.043067
635.5105	0.043045
635.7400	0.041990
635.9696	0.043383
636.1992	0.044502
636.4288	0.047035
636.6584	0.046591
636.8880	0.046549
637.1177	0.043425
637.3473	0.044840
637.5770	0.040006
637.8066	0.041695
638.0363	0.041462
638.2660	0.042307
638.4957	0.042919
638.7254	0.041315
638.9551	0.044650
639.1848	0.041061
639.4145	0.039162
639.6443	0.039356
639.8740	0.037317
640.1038	0.039252
640.3336	0.038159
640.5633	0.039519
640.7931	0.036415
641.0229	0.033970
641.2528	0.035672
641.4826	0.034302
641.7124	0.032832
641.9423	0.031636
642.1721	0.030141
642.4020	0.031017
642.6319	0.029965
642.8617	0.031318
643.0916	0.030553
643.3216	0.031270
643.5515	0.030740
643.7814	0.029787
644.0113	0.029331
644.2413	0.028177
644.4712	0.027463
644.7012	0.027793
644.9312	0.027435
645.1612	0.026585
645.3912	0.027798
645.6212	0.027594
645.8512	0.027712
646.0812	0.026660
646.3113	0.028092
646.5413	0.025681
646.7714	0.027028
647.0015	0.024620
647.2316	0.024271
647.4616	0.024309
647.6918	0.024377
647.9219	0.026510
648.1520	0.029363
648.3821	0.031215
648.6123	0.032735
648.8424	0.033654
649.0726	0.034556
649.3028	0.036547
649.5329	0.034909
649.7631	0.033932
649.9933	0.034318
650.2236	0.030325
650.4538	0.030678
650.6840	0.026938
650.9143	0.029136
651.1445	0.025925
651.3748	0.030054
651.6051	0.028199
651.8354	0.030564
652.0657	0.030359
652.2960	0.031884
652.5263	0.034911
652.7566	0.031062
652.9870	0.032887
653.2173	0.031847
653.4477	0.031666
653.6780	0.033775
653.9084	0.030808
654.1388	0.033063
654.3692	0.032829
654.5996	0.036946
654.8300	0.041419
655.0605	0.063362
655.2909	0.178715
655.5213	0.524304
655.7518	0.983222
655.9823	1.000000
656.2128	1.000000
656.4433	1.000000
656.6738	1.000000
656.9043	1.000000
657.1348	0.883513
657.3653	0.726403
657.5959	0.613822
657.8264	0.541285
658.0570	0.490492
658.2875	0.452792
658.5181	0.410886
658.7487	0.385132
658.9793	0.367461
659.2099	0.320663
659.4406	0.234627
659.6712	0.150386
659.9018	0.090881
660.1325	0.054568
660.3632	0.034946
660.5938	0.029816
660.8245	0.025431
661.0552	0.026260
661.2859	0.024101
661.5166	0.023972
661.7474	0.024464
661.9781	0.022680
662.2088	0.020809
662.4396	0.020955
662.6704	0.022363
662.9011	0.021283
663.1319	0.022572
663.3627	0.022130
663.5935	0.019308
663.8243	0.023413
664.0552	0.023697
664.2860	0.021429
664.5168	0.020930
664.7477	0.021585
664.9786	0.021703
665.2094	0.024418
665.4403	0.024133
665.6712	0.025603
665.9021	0.023006
666.1330	0.023041
666.3640	0.023390
666.5949	0.021555
666.8259	0.019418
667.0568	0.020895
667.2878	0.021933
667.5188	0.023625
667.7497	0.022273
667.9807	0.021953
668.2117	0.020463
668.4428	0.020186
668.6738	0.020503
668.9048	0.020587
669.1359	0.020629
669.3669	0.022339
669.5980	0.022444
669.8291	0.020988
670.0602	0.020418
670.2913	0.022824
670.5224	0.022318
670.7535	0.023415
670.9846	0.024998
671.2157	0.023099
671.4469	0.028270
671.6781	0.029621
671.9092	0.030845
672.1404	0.032091
672.3716	0.036502
672.6028	0.036544
672.8340	0.034750
673.0652	0.034919
673.2964	0.030655
673.5277	0.030930
673.7589	0.030339
673.9902	0.030339
674.2214	0.030043
674.4527	0.028249
674.6840	0.025209
674.9153	0.024956
675.1466	0.026244
675.3779	0.024766
675.6093	0.026265
675.8406	0.027046
676.0719	0.025779
676.3033	0.025695
676.5347	0.024112
676.7661	0.024196
676.9974	0.023394
677.2288	0.024407
677.4602	0.023943
677.6917	0.028038
677.9231	0.029853
678.1545	0.028376
678.3860	0.029072
678.6174	0.031014
678.8489	0.030381
679.0804	0.031521
679.3119	0.031774
679.5434	0.033062
679.7749	0.034518
680.0064	0.034919
680.2379	0.033294
680.4694	0.037473
680.7010	0.034455
680.9325	0.035025
681.1641	0.034138
681.3957	0.035806
681.6273	0.035932
681.8589	0.035025
682.0905	0.033821
682.3221	0.032027
682.5537	0.031014
682.7854	0.031690
683.0170	0.029283
683.2487	0.031732
683.4803	0.031225
683.7120	0.032344
683.9437	0.033484
684.1754	0.033505
684.4071	0.034032
684.6388	0.037684
684.8705	0.039035
685.1023	0.039837
685.3340	0.044227
685.5658	0.045198
685.7975	0.045874
686.0293	0.044671
686.2611	0.043067
686.4929	0.045747
686.7247	0.042433
686.9565	0.042961
687.1883	0.044333
687.4202	0.042982
687.6520	0.041716
687.8838	0.042750
688.1157	0.039732
688.3476	0.039330
688.5795	0.039795
688.8114	0.036882
689.0433	0.036122
689.2752	0.034940
689.5071	0.035299
689.7390	0.037431
689.9710	0.030845
690.2029	0.034708
690.4349	0.034961
690.6669	0.033885
690.8988	0.036143
691.1308	0.037895
691.3628	0.039140
691.5948	0.037536
691.8269	0.037283
692.0589	0.036734
692.2909	0.035911
692.5230	0.038908
692.7550	0.038381
692.9871	0.037726
693.2192	0.039753
693.4513	0.040829
693.6834	0.038739
693.9155	0.037811
694.1476	0.035278
694.3797	0.035552
694.6119	0.031668
694.8440	0.033505
695.0762	0.033842
695.3083	0.036122
695.5405	0.032154
695.7727	0.029325
696.0049	0.030043
696.2371	0.029916
696.4693	0.033273
696.7016	0.035046
696.9338	0.039816
697.1660	0.040660
697.3983	0.040449
697.6306	0.038866
697.8628	0.038908
698.0951	0.039288
698.3274	0.040808
698.5597	0.037557
698.7920	0.037621
699.0243	0.037431
699.2567	0.035404
699.4890	0.033906
699.7214	0.035426
699.9537	0.033505
700.1861	0.031120
700.4185	0.030866
700.6509	0.031120
700.8833	0.031099
701.1157	0.029199
701.3481	0.028650
701.5806	0.030170
701.8130	0.028650
702.0454	0.029325
702.2779	0.027236
702.5104	0.031542
702.7429	0.031141
702.9753	0.030149
703.2078	0.027911
703.4403	0.031331
703.6729	0.028460
703.9054	0.027215
704.1379	0.027405
704.3705	0.028270
704.6030	0.028460
704.8356	0.026265
705.0682	0.025315
705.3008	0.023732
705.5334	0.024471
705.7660	0.023204
705.9986	0.026054
706.2312	0.028186
706.4638	0.031120
706.6965	0.032154
706.9291	0.035046
707.1618	0.036840
707.3945	0.038001
707.6272	0.037557
707.8599	0.036988
708.0926	0.038170
708.3253	0.039689
708.5580	0.037283
708.7907	0.036397
709.0235	0.034602
709.2562	0.033125
709.4890	0.033125
709.7217	0.033273
709.9545	0.033906
710.1873	0.033779
710.4201	0.035172
710.6529	0.034497
710.8857	0.032998
711.1186	0.033526
711.3514	0.032724
711.5842	0.031288
711.8171	0.031099
712.0500	0.026814
712.2828	0.027616
712.5157	0.026370
712.7486	0.030465
712.9815	0.030022
713.2144	0.030022
713.4474	0.032872
713.6803	0.035257
713.9132	0.033378
714.1462	0.034476
714.3791	0.035953
714.6121	0.032660
714.8451	0.031647
715.0781	0.036544
715.3111	0.033526
715.5441	0.036291
715.7771	0.035869
716.0102	0.031563
716.2432	0.029938
716.4762	0.030930
716.7093	0.029980
716.9424	0.030064
717.1754	0.028186
717.4085	0.030212
717.6416	0.028946
717.8747	0.026624
718.1078	0.028861
718.3410	0.030339
718.5741	0.029283
718.8072	0.028523
719.0404	0.029093
719.2736	0.030486
719.5067	0.031478
719.7399	0.030022
719.9731	0.028882
720.2063	0.028207
720.4395	0.027426
720.6727	0.029199
720.9060	0.030043
721.1392	0.033315
721.3725	0.028587
721.6057	0.029663
721.8390	0.031563
722.0723	0.030824
722.3055	0.029705
722.5388	0.028207
722.7721	0.028460
723.0055	0.027426
723.2388	0.027299
723.4721	0.027953
723.7055	0.028523
723.9388	0.027911
724.1722	0.028101
724.4056	0.025083
724.6389	0.024492
724.8723	0.028946
725.1057	0.030318
725.3391	0.032048
725.5726	0.030254
725.8060	0.032745
726.0394	0.033294
726.2729	0.033104
726.5063	0.034813
726.7398	0.032850
726.9733	0.032449
727.2068	0.033505
727.4403	0.032091
727.6738	0.030930
727.9073	0.033040
728.1408	0.033568
728.3743	0.036354
728.6079	0.034518
728.8414	0.033188
729.0750	0.036418
729.3086	0.034560
729.5421	0.036608
729.7757	0.035806
730.0093	0.039394
730.2429	0.038592
730.4766	0.037156
730.7102	0.040449
730.9438	0.040639
731.1775	0.042623
731.4111	0.043341
731.6448	0.042370
731.8785	0.045198
732.1122	0.042307
732.3458	0.042053
732.5795	0.044354
732.8133	0.044059
733.0470	0.044016
733.2807	0.044692
733.5145	0.042053
733.7482	0.044797
733.9820	0.049969
734.2157	0.050813
734.4495	0.052945
734.6833	0.051066
734.9171	0.047309
735.1509	0.047499
735.3847	0.048006
735.6185	0.048301
735.8524	0.047077
736.0862	0.047119
736.3201	0.050222
736.5539	0.047605
736.7878	0.048808
737.0217	0.048196
737.2556	0.051066
737.4895	0.047161
737.7234	0.045346
737.9573	0.044270
738.1912	0.040512
738.4252	0.040006
738.6591	0.042349
738.8931	0.040787
739.1271	0.043826
739.3610	0.044903
739.5950	0.045684
739.8290	0.045853
740.0630	0.041610
740.2970	0.041800
740.5310	0.040829
740.7651	0.038507
740.9991	0.036650
741.2332	0.037600
741.4672	0.035088
741.7013	0.035995
741.9354	0.033610
742.1695	0.035151
742.4036	0.030909
742.6377	0.037747
742.8718	0.035806
743.1059	0.034919
743.3400	0.031647
743.5742	0.032597
743.8083	0.030993
744.0425	0.030550
744.2767	0.029769
744.5108	0.031099
744.7450	0.030613
744.9792	0.030444
745.2134	0.028882
745.4477	0.027004
745.6819	0.028460
745.9161	0.028692
746.1504	0.027531
746.3846	0.029199
746.6189	0.028861
746.8532	0.028207
747.0874	0.028038
747.3217	0.031943
747.5560	0.031626
747.7903	0.032302
748.0247	0.030106
748.2590	0.027637
748.4933	0.029389
748.7277	0.027911
748.9620	0.028481
749.1964	0.030909
749.4308	0.030761
749.6652	0.035383
749.8995	0.039246
750.1339	0.040154
750.3684	0.041779
750.6028	0.042011
750.8372	0.040534
751.0717	0.039077
751.3061	0.040829
751.5406	0.039394
751.7750	0.039098
752.0095	0.039162
752.2440	0.040808
752.4785	0.039626
752.7130	0.037304
752.9475	0.036629
753.1820	0.035257
753.4166	0.036755
753.6511	0.042539
753.8856	0.040323
754.1202	0.041209
754.3548	0.041695
754.5894	0.040111
754.8239	0.039563
755.0585	0.039288
755.2931	0.040618
755.5278	0.041040
755.7624	0.042750
755.9970	0.044291
756.2317	0.045726
756.4663	0.048069
756.7010	0.049758
756.9356	0.050306
757.1703	0.053008
757.4050	0.056808
757.6397	0.059573
757.8744	0.058053
758.1091	0.061472
758.3438	0.059214
758.5786	0.053346
758.8133	0.052607
759.0481	0.054021
759.2828	0.057293
759.5176	0.059720
759.7524	0.059678
759.9872	0.060945
760.2220	0.063224
760.4568	0.066813
760.6916	0.064174
760.9264	0.063034
761.1613	0.060396
761.3961	0.059425
761.6310	0.057230
761.8658	0.053050
762.1007	0.050581
762.3356	0.049821
762.5705	0.047436
762.8054	0.048386
763.0403	0.048090
763.2752	0.049335
763.5101	0.050982
763.7450	0.050053
763.9800	0.049821
764.2149	0.052164
764.4499	0.055879
764.6849	0.056132
764.9198	0.056238
765.1548	0.059678
765.3898	0.057652
765.6248	0.055837
765.8599	0.052692
766.0949	0.049631
766.3299	0.046127
766.5650	0.042919
766.8000	0.040956
767.0351	0.040724
767.2701	0.038782
767.5052	0.036164
767.7403	0.037241
767.9754	0.039605
768.2105	0.043299
768.4456	0.043974
768.6808	0.049652
768.9159	0.048576
769.1510	0.048217
769.3862	0.046866
769.6214	0.046064
769.8565	0.045388
770.0917	0.046085
770.3269	0.044185
770.5621	0.046085
770.7973	0.048365
771.0325	0.048491
771.2677	0.047246
771.5030	0.050095
771.7382	0.046233
771.9735	0.044037
772.2087	0.042560
772.4440	0.038993
772.6793	0.040259
772.9146	0.039499
773.1499	0.040428
773.3852	0.039499
773.6205	0.040618
773.8558	0.037853
774.0911	0.039415
774.3265	0.033653
774.5618	0.033716
774.7972	0.029811
775.0326	0.030022
775.2679	0.031077
775.5033	0.030212
775.7387	0.028608
775.9741	0.026392
776.2095	0.026645
776.4450	0.027700
776.6804	0.026581
776.9158	0.024998
777.1513	0.025484
777.3868	0.023289
777.6222	0.025990
777.8577	0.021980
778.0932	0.024787
778.3287	0.024597
778.5642	0.028080
778.7997	0.027679
779.0352	0.030339
779.2707	0.030550
779.5063	0.033378
779.7418	0.031605
779.9774	0.030550
780.2130	0.029389
780.4485	0.029790
780.6841	0.030212
780.9197	0.032112
781.1553	0.033674
781.3909	0.034729
781.6265	0.036544
781.8622	0.034307
782.0978	0.035046
782.3335	0.034771
782.5691	0.035214
782.8048	0.035721
783.0405	0.032808
783.2761	0.031690
783.5118	0.033927
783.7475	0.036755
783.9832	0.033547
784.2190	0.032323
784.4547	0.030486
784.6904	0.029304
784.9262	0.030296
785.1619	0.029558
785.3977	0.029072
785.6335	0.029009
785.8692	0.027552
786.1050	0.029959
786.3408	0.029790
786.5766	0.029663
786.8124	0.027426
787.0483	0.028587
787.2841	0.029959
787.5199	0.028481
787.7558	0.029241
787.9917	0.029473
788.2275	0.030951
788.4634	0.030423
788.6993	0.030803
788.9352	0.033399
789.1711	0.032492
789.4070	0.028523
789.6429	0.027679
789.8789	0.028566
790.1148	0.026434
790.3507	0.027341
790.5867	0.027109
790.8227	0.024154
791.0586	0.022149
791.2946	0.024872
791.5306	0.023352
791.7666	0.024281
792.0026	0.024513
792.2387	0.021621
792.4747	0.022909
792.7107	0.020376
792.9468	0.022191
793.1828	0.021030
793.4189	0.021495
793.6550	0.021917
793.8910	0.026033
794.1271	0.030592
794.3632	0.030824
794.5993	0.031500
794.8355	0.031943
795.0716	0.034370
795.3077	0.033969
795.5439	0.031542
795.7800	0.027215
796.0162	0.027890
796.2523	0.026307
796.4885	0.023922
796.7247	0.020967
796.9609	0.020059
797.1971	0.020840
797.4333	0.021178
797.6695	0.023648
797.9058	0.021685
798.1420	0.023331
798.3783	0.023626
798.6145	0.022951
798.8508	0.023246
799.0871	0.024471
799.3233	0.022803
799.5596	0.022613
799.7959	0.020460
800.0322	0.019637
800.2686	0.020650
800.5049	0.019806
800.7412	0.020080
800.9776	0.018919
801.2139	0.019046
801.4503	0.019890
801.6867	0.018814
801.9230	0.016598
802.1594	0.016576
802.3958	0.016387
802.6322	0.017400
802.8686	0.016513
803.1051	0.016028
803.3415	0.018307
803.5779	0.020123
803.8144	0.018202
804.0508	0.018012
804.2873	0.017210
804.5238	0.017168
804.7603	0.017210
804.9968	0.016809
805.2333	0.016112
805.4698	0.017864
805.7063	0.018244
805.9428	0.019658
806.1794	0.022740
806.4159	0.022951
806.6525	0.023120
806.8890	0.026940
807.1256	0.022064
807.3622	0.020840
807.5988	0.025146
807.8354	0.021157
808.0720	0.021896
808.3086	0.021853
808.5452	0.023563
808.7818	0.021727
809.0185	0.020165
809.2551	0.023331
809.4918	0.022613
809.7284	0.019933
809.9651	0.019152
810.2018	0.020988
810.4385	0.019426
810.6752	0.018751
810.9119	0.017357
811.1486	0.017885
811.3853	0.016956
811.6221	0.016640
811.8588	0.017463
812.0956	0.014825
812.3323	0.014719
812.5691	0.016302
812.8059	0.013643
813.0427	0.015226
813.2795	0.014191
813.5163	0.016112
813.7531	0.016576
813.9899	0.019215
814.2267	0.019025
814.4636	0.018350
814.7004	0.018624
814.9373	0.018751
815.1742	0.016429
815.4110	0.015711
815.6479	0.015627
815.8848	0.014191
816.1217	0.014909
816.3586	0.012672
816.5955	0.015648
816.8324	0.015416
817.0694	0.013009
817.3063	0.013875
817.5433	0.013685
817.7802	0.014529
818.0172	0.013495
818.2542	0.014571
818.4912	0.014424
818.7282	0.014022
818.9652	0.013115
819.2022	0.013009
819.4392	0.011912
819.6762	0.012059
819.9133	0.012883
820.1503	0.011532
820.3874	0.013980
820.6244	0.014001
820.8615	0.017759
821.0986	0.014740
821.3357	0.015268
821.5727	0.015204
821.8099	0.017062
822.0470	0.013263
822.2841	0.013009
822.5212	0.013094
822.7584	0.012904
822.9955	0.012650
823.2327	0.013178
823.4698	0.012397
823.7070	0.011447
823.9442	0.011152
824.1814	0.008851
824.4186	0.010455
824.6558	0.011426
824.8930	0.010350
825.1302	0.011194
825.3675	0.011300
825.6047	0.014044
825.8419	0.012376
826.0792	0.013009
826.3165	0.013579
826.5537	0.013706
826.7910	0.011173
827.0283	0.012545
827.2656	0.012334
827.5029	0.013136
827.7402	0.013537
827.9776	0.012397
828.2149	0.013875
828.4522	0.011595
828.6896	0.010941
828.9270	0.012081
829.1643	0.012798
829.4017	0.011764
829.6391	0.010286
829.8765	0.011342
830.1139	0.010455
830.3513	0.011152
830.5887	0.009780
830.8261	0.009400
831.0636	0.010751
831.3010	0.008197
831.5385	0.008830
831.7759	0.007521
832.0134	0.008830
832.2509	0.007775
832.4884	0.007331
832.7259	0.008323
832.9634	0.008598
833.2009	0.008176
833.4384	0.008535
833.6759	0.010624
833.9135	0.009548
834.1510	0.010983
834.3886	0.012207
834.6261	0.010498
834.8637	0.009505
835.1013	0.010962
835.3389	0.010899
835.5765	0.011827
835.8141	0.009041
836.0517	0.009126
836.2893	0.009104
836.5269	0.008239
836.7646	0.007859
837.0022	0.007711
837.2399	0.006192
837.4775	0.005221
837.7152	0.007268
837.9529	0.008872
838.1906	0.006930
838.4283	0.006382
838.6660	0.007163
838.9037	0.005326
839.1414	0.006065
839.3791	0.008703
839.6169	0.006740
839.8546	0.008281
840.0924	0.005833
840.3302	0.007437
840.5679	0.006804
840.8057	0.007606
841.0435	0.007564
841.2813	0.007901
841.5191	0.007057
841.7569	0.005769
841.9947	0.004566
842.2326	0.005537
842.4704	0.005727
842.7082	0.005917
842.9461	0.005263
843.1840	0.006276
843.4218	0.005221
843.6597	0.005664
843.8976	0.005601
844.1355	0.004946
844.3734	0.003996
844.6113	0.005284
844.8492	0.004545
845.0872	0.003743
845.3251	0.006065
845.5631	0.006424
845.8010	0.006318
846.0390	0.005326
846.2770	0.005558
846.5149	0.005389
846.7529	0.004397
846.9909	0.004081
847.2289	0.005263
847.4669	0.005474
847.7050	0.006107
847.9430	0.004524
848.1810	0.004967
848.4191	0.004102
848.6571	0.003680
848.8952	0.004967
849.1333	0.004313
849.3713	0.005959
849.6094	0.005791
849.8475	0.005474
850.0856	0.003574
850.3237	0.005326
850.5619	0.003363
850.8000	0.004102
851.0381	0.004376
851.2763	0.004608
851.5144	0.004334
851.7526	0.005368
851.9908	0.004714
852.2289	0.006550
852.4671	0.006529
852.7053	0.008007
852.9435	0.009315
853.1817	0.013220
853.4200	0.013537
853.6582	0.013073
853.8964	0.013389
854.1347	0.012925
854.3729	0.012545
854.6112	0.014149
854.8495	0.014402
855.0877	0.013389
855.3260	0.013875
855.5643	0.011827
855.8026	0.011806
856.0409	0.012904
856.2792	0.010899
856.5176	0.012650
856.7559	0.011954
856.9942	0.011067
857.2326	0.010561
857.4710	0.009949
857.7093	0.011194
857.9477	0.011278
858.1861	0.009759
858.4245	0.009906
858.6629	0.010118
858.9013	0.009780
859.1397	0.006909
859.3781	0.008429
859.6166	0.008703
859.8550	0.009231
860.0935	0.007943
860.3319	0.008049
860.5704	0.007205
860.8089	0.007775
861.0473	0.007500
861.2858	0.006614
861.5243	0.005601
861.7628	0.006571
862.0013	0.005326
862.2399	0.006149
862.4784	0.006529
862.7169	0.006403
862.9555	0.005031
863.1940	0.005516
863.4326	0.006783
863.6712	0.007310
863.9098	0.006403
864.1483	0.005980
864.3869	0.007310
864.6255	0.007247
864.8642	0.005537
865.1028	0.005875
865.3414	0.004587
865.5800	0.004693
865.8187	0.004355
866.0573	0.004461
866.2960	0.004271
866.5347	0.004419
866.7733	0.004334
867.0120	0.006023
867.2507	0.005157
867.4894	0.005685
867.7281	0.005685
867.9669	0.006002
868.2056	0.004207
868.4443	0.004841
868.6831	0.005326
868.9218	0.004651
869.1606	0.003701
869.3993	0.005052
869.6381	0.003638
869.8769	0.005453
870.1157	0.003891
870.3545	0.003553
870.5933	0.006086
870.8321	0.006930
871.0709	0.005558
871.3097	0.005601
871.5486	0.005453
871.7874	0.005537
872.0263	0.004756
872.2651	0.005094
872.5040	0.005938
872.7429	0.004608
872.9818	0.004841
873.2207	0.004524
873.4596	0.005221
873.6985	0.003849
873.9374	0.004925
874.1763	0.004841
874.4153	0.005622
874.6542	0.004503
874.8932	0.003743
875.1321	0.004735
875.3711	0.005221
875.6101	0.005136
875.8491	0.005432
876.0880	0.005938
876.3270	0.005769
876.5661	0.004777
876.8051	0.004798
877.0441	0.005326
877.2831	0.006170
877.5222	0.005748
877.7612	0.007479
878.0003	0.005157
878.2393	0.006846
878.4784	0.005980
878.7175	0.007331
878.9566	0.005959
879.1957	0.006571
879.4348	0.006698
879.6739	0.008133
879.9130	0.005896
880.1521	0.008091
880.3913	0.007141
880.6304	0.006973
880.8696	0.007120
881.1087	0.008682
881.3479	0.008155
881.5871	0.005959
881.8262	0.005959
882.0654	0.007648
882.3046	0.005579
882.5438	0.006170
882.7831	0.005115
883.0223	0.005242
883.2615	0.006614
883.5007	0.005516
883.7400	0.004419
883.9792	0.006065
884.2185	0.007205
884.4578	0.005601
884.6971	0.005474
884.9363	0.005917
885.1756	0.004988
885.4149	0.004355
885.6542	0.006445
885.8936	0.006128
886.1329	0.005854
886.3722	0.006086
886.6116	0.005558
886.8509	0.005010
887.0903	0.005537
887.3296	0.005706
887.5690	0.005537
887.8084	0.006023
888.0478	0.004186
888.2872	0.006002
888.5266	0.004207
888.7660	0.005453
889.0054	0.004524
889.2448	0.005136
889.4843	0.004397
889.7237	0.004988
889.9632	0.005221
890.2026	0.006128
890.4421	0.004735
890.6816	0.003258
890.9211	0.003849
891.1606	0.004292
891.4001	0.004292
891.6396	0.004798
891.8791	0.004862
892.1186	0.005368
892.3581	0.003405
892.5977	0.003595
892.8372	0.005453
893.0768	0.004334
893.3163	0.003511
893.5559	0.006593
893.7955	0.003828
894.0351	0.004081
894.2747	0.003258
894.5143	0.004123
894.7539	0.003870
894.9935	0.004967
895.2331	0.003574
895.4727	0.003912
895.7124	0.004313
895.9520	0.005136
896.1917	0.006698
896.4314	0.004207
896.6710	0.005284
896.9107	0.004440
897.1504	0.004123
897.3901	0.003954
897.6298	0.005495
897.8695	0.005495
898.1092	0.003849
898.3489	0.004777
898.5887	0.004081
898.8284	0.005980
899.0682	0.004714
899.3079	0.003616
899.5477	0.003933
899.7875	0.004039
900.0272	0.004482
900.2670	0.002456
900.5068	0.003532
900.7466	0.004841
900.9864	0.004925
901.2263	0.004250
901.4661	0.003279
901.7059	0.004545
901.9458	0.004841
902.1856	0.004123
902.4255	0.004608
902.6654	0.004144
902.9052	0.003680
903.1451	0.004946
903.3850	0.003933
903.6249	0.003047
903.8648	0.003701
904.1047	0.003764
904.3446	0.003933
904.5846	0.003574
904.8245	0.004060
905.0644	0.004419
905.3044	0.004102
905.5444	0.004841
905.7843	0.005221
906.0243	0.006002
906.2643	0.004587
906.5043	0.003870
906.7443	0.003891
906.9843	0.003701
907.2243	0.003194
907.4643	0.004820
907.7043	0.004397
907.9444	0.003870
908.1844	0.003384
908.4245	0.003638
908.6645	0.002350
908.9046	0.004165
909.1447	0.002772
909.3847	0.004524
909.6248	0.003173
909.8649	0.003152
910.1050	0.003236
910.3452	0.003553
910.5853	0.003363
910.8254	0.003806
911.0655	0.004334
911.3057	0.003743
911.5458	0.004229
911.7860	0.005010
912.0262	0.004566
912.2663	0.004735
912.5065	0.004545
912.7467	0.004102
912.9869	0.002688
913.2271	0.003891
913.4673	0.003891
913.7075	0.003131
913.9478	0.003300
914.1880	0.004397
914.4283	0.002392
914.6685	0.003511
914.9088	0.002603
915.1490	0.004081
915.3893	0.002392
915.6296	0.003089
915.8699	0.001822
916.1102	0.002962
916.3505	0.002814
916.5908	0.004482
916.8311	0.003532
917.0714	0.004419
917.3118	0.002983
917.5521	0.003996
917.7925	0.003891
918.0328	0.003532
918.2732	0.003849
918.5136	0.004313
918.7539	0.003490
918.9943	0.003912
919.2347	0.004165
919.4751	0.002814
919.7155	0.004271
919.9560	0.003047
920.1964	0.002772
920.4368	0.003532
920.6773	0.003785
920.9177	0.004735
921.1582	0.002160
921.3986	0.002645
921.6391	0.001928
921.8796	0.002540
922.1201	0.001653
922.3606	0.004081
922.6011	0.003004
922.8416	0.002709
923.0821	0.002688
923.3226	0.003089
923.5631	0.003089
923.8037	0.002793
924.0442	0.002434
924.2848	0.002645
924.5254	0.002561
924.7659	0.003680
925.0065	0.002308
925.2471	0.003363
925.4877	0.003173
925.7283	0.002540
925.9689	0.001590
926.2095	0.002181
926.4501	0.001611
926.6908	0.002139
926.9314	0.002772
927.1720	0.002244
927.4127	0.001210
927.6533	0.001865
927.8940	0.000429
928.1347	0.002540
928.3754	0.002371
928.6161	0.001569
928.8568	0.002202
929.0975	0.001970
929.3382	0.001970
929.5789	0.003490
929.8196	0.002519
930.0604	0.001231
930.3011	-0.000246
930.5419	0.002076
930.7826	0.001590
931.0234	0.002413
931.2642	0.000704
931.5049	0.003342
931.7457	0.001379
931.9865	0.002413
932.2273	0.002054
932.4681	0.002540
932.7089	0.000640
932.9498	0.002287
933.1906	0.001843
933.4314	0.002308
933.6723	0.001949
933.9131	0.001506
934.1540	0.001886
934.3949	0.002118
934.6358	0.002139
934.8766	0.003068
935.1175	0.001020
935.3584	0.001421
935.5993	0.002012
935.8403	0.003068
936.0812	0.002772
936.3221	0.002857
936.5630	0.002012
936.8040	0.001421
937.0449	0.001759
937.2859	0.002097
937.5269	0.001147
937.7678	0.001506
938.0088	0.000239
938.2498	0.000493
938.4908	0.001970
938.7318	0.001316
938.9728	0.002498
939.2138	0.001062
939.4549	0.001168
939.6959	0.001147
939.9369	0.002645
940.1780	0.000936
940.4190	0.000767
940.6601	0.000640
940.9012	0.002371
941.1422	0.000514
941.3833	0.000746
941.6244	0.000619
941.8655	0.001548
942.1066	-0.000478
942.3477	0.001822
942.5889	0.000493
942.8300	0.001696
943.0711	0.001485
943.3123	0.000957
943.5534	0.000239
943.7946	0.000556
944.0357	-0.000647
944.2769	0.001231
944.5181	0.000493
944.7593	0.001548
945.0005	0.001020
945.2417	0.002139
945.4829	0.001485
945.7241	0.001485
945.9653	0.000682
946.2066	0.000809
946.4478	0.002624
946.6891	0.001865
946.9303	0.000260
947.1716	0.000999
947.4128	0.001400
947.6541	0.003004
947.8954	0.000788
948.1367	0.000577
948.3780	-0.000141
948.6193	-0.000225
948.8606	-0.000626
949.1019	0.002266
949.3433	0.000260
949.5846	0.001759
949.8259	-0.000331
950.0673	0.000746
950.3086	0.000366
950.5500	0.000408
950.7914	-0.000183
951.0327	0.001801
951.2741	0.000408
951.5155	0.000239
951.7569	0.001210
951.9983	0.001379
952.2398	-0.000500
952.4812	0.001337
952.7226	0.001548
952.9640	0.001991
953.2055	0.001675
953.4469	0.000345
953.6884	0.000493
953.9299	0.000851
954.1713	0.000746
954.4128	0.001041
954.6543	0.000682
954.8958	0.001696
955.1373	0.000408
955.3788	0.001168
955.6203	-0.000141
955.8618	0.002350
956.1034	0.001717
956.3449	0.000239
956.5865	0.001379
956.8280	0.001907
957.0696	0.000324
957.3111	0.000303
957.5527	0.001189
957.7943	0.001126
958.0359	-0.000014
958.2775	0.000725
958.5191	0.000324
958.7607	0.001569
959.0023	-0.001344
959.2439	0.000704
959.4856	0.000197
959.7272	0.000260
959.9688	0.000936
960.2105	-0.000858
960.4522	0.000028
960.6938	0.001062
960.9355	0.000260
961.1772	0.002266
961.4189	0.000239
961.6606	0.000936
961.9023	0.001316
962.1440	0.000239
962.3857	0.000894
962.6274	0.000535
962.8692	0.000218
963.1109	0.000239
963.3527	0.000366
963.5944	-0.000035
963.8362	-0.000141
964.0779	0.000260
964.3197	-0.000099
964.5615	0.001590
964.8033	0.001126
965.0451	0.002118
965.2869	-0.000732
965.5287	0.000197
965.7705	0.000704
966.0123	0.001590
966.2542	0.000682
966.4960	0.000324
966.7379	-0.000521
966.9797	0.001822
967.2216	0.000535
967.4634	0.002709
967.7053	-0.000162
967.9472	0.000049
968.1891	0.000915
968.4310	0.000514
968.6729	-0.001386
968.9148	0.002076
969.1567	-0.000162
969.3987	0.001231
969.6406	0.000176
969.8825	-0.000183
970.1245	0.000070
970.3664	0.000471
970.6084	-0.000141
970.8504	0.000661
971.0923	0.000493
971.3343	0.000471
971.5763	0.000872
971.8183	0.000366
972.0603	0.002498
972.3023	0.001485
972.5443	-0.000225
972.7864	0.000640
973.0284	0.000007
973.2704	0.000176
973.5125	0.001273
973.7545	0.000619
973.9966	0.000999
974.2387	0.000978
974.4807	0.001210
974.7228	0.000704
974.9649	0.000872
975.2070	0.000514
975.4491	0.001126
975.6912	0.000894
975.9333	0.001548
976.1755	0.002033
976.4176	-0.000141
976.6597	0.000049
976.9019	0.000345
977.1440	0.000049
977.3862	0.001843
977.6283	0.000070
977.8705	-0.000584
978.1127	0.001147
978.3549	-0.000563
978.5971	0.000725
978.8393	-0.000795
979.0815	0.000535
979.3237	0.001463
979.5659	0.000872
979.8082	0.001675
980.0504	0.000535
980.2926	0.001632
980.5349	-0.000099
980.7771	0.000281
981.0194	0.000725
981.2617	-0.000310
981.5040	-0.000352
981.7462	-0.000267
981.9885	0.000809
982.2308	-0.000584
982.4731	0.000091
982.7155	0.001062
982.9578	0.000239
983.2001	-0.000415
983.4424	-0.000521
983.6848	-0.000225
983.9271	-0.000500
984.1695	0.000070
984.4118	0.000493
984.6542	-0.000732
984.8966	-0.000035
985.1390	0.000113
985.3814	0.001421
985.6238	0.000239
985.8662	0.000725
986.1086	0.000239
986.3510	0.000218
986.5934	-0.000373
986.8358	0.000387
987.0783	0.001970
987.3207	0.001210
987.5632	-0.000858
987.8056	0.000366
988.0481	-0.000500
988.2906	0.000872
988.5331	0.000387
988.7756	-0.000162
989.0180	0.000324
989.2605	0.000915
989.5031	0.000387
989.7456	-0.000246
989.9881	0.000345
990.2306	-0.001407
990.4732	0.000577
990.7157	0.001062
990.9582	0.000239
991.2008	0.000830
991.4434	-0.000816
991.6859	-0.000331
991.9285	-0.000310
992.1711	0.001970
992.4137	-0.000162
992.6563	-0.000162
992.8989	-0.000690
993.1415	-0.000542
993.3841	0.000091
993.6267	0.000429
993.8694	0.000577
994.1120	0.000007
994.3547	0.001316
994.5973	0.000387
994.8400	0.000091
995.0826	0.001717
995.3253	-0.000732
995.5680	-0.000225
995.8107	-0.000542
996.0534	0.001759
996.2961	-0.001344
996.5388	-0.001407
996.7815	-0.000162
997.0242	0.000218
997.2670	-0.000141
997.5097	-0.000478
997.7524	0.000936
997.9952	0.000007
998.2379	-0.001534
998.4807	-0.000500
998.7235	0.000429
998.9662	0.000429
999.2090	0.000007
999.4518	0.000830
999.6946	-0.000183
999.9374	-0.001027
1000.1802	0.000999
1000.4230	-0.001513
1000.6659	0.000598
1000.9087	-0.000267
1001.1515	-0.000647
1001.3944	-0.000267
1001.6372	0.000767
1001.8801	-0.000816
1002.1230	-0.000879
1002.3658	-0.001238
1002.6087	0.000851
1002.8516	-0.000056
1003.0945	0.000999
1003.3374	-0.000795
1003.5803	-0.001196
1003.8232	0.000324
1004.0661	0.001337
1004.3091	-0.000753
1004.5520	0.000725
1004.7949	-0.000901
1005.0379	0.000535
1005.2808	-0.000879
1005.5238	0.001442
1005.7667	0.000788
1006.0097	0.001062
1006.2527	-0.000331
1006.4957	0.000070
1006.7387	0.001590
1006.9817	0.000471
1007.2247	-0.000521
1007.4677	0.000324
1007.7107	0.000345
1007.9538	-0.002040
1008.1968	-0.001217
1008.4398	0.000957
1008.6829	0.000767
1008.9259	0.000894
1009.1690	0.000366
1009.4121	-0.000542
1009.6551	0.000493
1009.8982	0.000450
1010.1413	0.000239
1010.3844	0.001084
1010.6275	-0.000584
1010.8706	0.001210
1011.1137	-0.000879
1011.3568	0.000640
1011.6000	0.000197
1011.8431	0.000788
1012.0863	0.000113
1012.3294	0.000366
1012.5726	-0.001428
1012.8157	0.000007
1013.0589	-0.000225
1013.3021	0.000155
1013.5452	0.000682
1013.7884	0.000450
1014.0316	-0.000162
1014.2748	0.000471
1014.5180	-0.001006
1014.7613	0.001062
1015.0045	0.001062
1015.2477	-0.000394
1015.4909	-0.000901
1015.7342	-0.000394
1015.9774	-0.000457
1016.2207	-0.000288
1016.4640	-0.000457
1016.7072	-0.001428
1016.9505	-0.001787
1017.1938	0.000070
1017.4371	0.001590
1017.6804	0.000830
1017.9237	-0.000120
1018.1670	-0.001133
1018.4103	-0.001407
1018.6536	0.000281
1018.8969	-0.000985
1019.1403	0.000408
1019.3836	0.000598
1019.6270	0.001126
1019.8703	-0.000352
1020.1137	0.001358
1020.3571	-0.000077
1020.6004	-0.000668
1020.8438	-0.000626
1021.0872	-0.000162
1021.3306	-0.001302
1021.5740	-0.000077
1021.8174	-0.001682
1022.0608	-0.000985
1022.3042	0.000134
1022.5477	-0.001196
1022.7911	0.000239
1023.0345	0.000007
